#pragma once

namespace phil {
    // lookup table for 18-63mm
    const float REFLECTANCE_LOOKUP[801] = {
            18.,
            18.0291,
            18.058,
            18.0868,
            18.1155,
            18.144,
            18.1724,
            18.2006, 
            18.2287,
            18.2566,
            18.2844,
            18.312,
            18.3395,
            18.3669,
            18.3941, 
            18.4212,
            18.4482,
            18.475,
            18.5016,
            18.5282,
            18.5545,
            18.5808, 
            18.6069,
            18.6329,
            18.6588,
            18.6845,
            18.7101,
            18.7355,
            18.7608, 
            18.786,
            18.8111,
            18.836,
            18.8608,
            18.8855,
            18.91,
            18.9344,
            18.9587, 
            18.9829,
            19.0069,
            19.0308,
            19.0546,
            19.0782,
            19.1018,
            19.1252, 
            19.1485,
            19.1716,
            19.1947,
            19.2176,
            19.2404,
            19.2631,
            19.2856, 
            19.3081,
            19.3304,
            19.3526,
            19.3747,
            19.3967,
            19.4185,
            19.4403, 
            19.4619,
            19.4834,
            19.5048,
            19.5261,
            19.5473,
            19.5684,
            19.5893, 
            19.6102,
            19.6309,
            19.6515,
            19.6721,
            19.6925,
            19.7128,
            19.733, 
            19.7531,
            19.7731,
            19.7929,
            19.8127,
            19.8324,
            19.852,
            19.8714, 
            19.8908,
            19.9101,
            19.9292,
            19.9483,
            19.9673,
            19.9861,
            20.0049, 
            20.0236,
            20.0421,
            20.0606,
            20.079,
            20.0973,
            20.1155,
            20.1336, 
            20.1516,
            20.1695,
            20.1873,
            20.205,
            20.2226,
            20.2402,
            20.2576,
            20.275, 
            20.2923,
            20.3095,
            20.3266,
            20.3436,
            20.3605,
            20.3773,
            20.3941, 
            20.4108,
            20.4274,
            20.4439,
            20.4603,
            20.4766,
            20.4929,
            20.509, 
            20.5251,
            20.5411,
            20.5571,
            20.5729,
            20.5887,
            20.6044,
            20.62,
            20.6356, 
            20.6511,
            20.6664,
            20.6818,
            20.697,
            20.7122,
            20.7273,
            20.7423, 
            20.7573,
            20.7722,
            20.787,
            20.8017,
            20.8164,
            20.831,
            20.8455,
            20.86, 
            20.8744,
            20.8888,
            20.903,
            20.9172,
            20.9314,
            20.9455,
            20.9595, 
            20.9734,
            20.9873,
            21.0011,
            21.0149,
            21.0286,
            21.0423,
            21.0559, 
            21.0694,
            21.0829,
            21.0963,
            21.1096,
            21.1229,
            21.1362,
            21.1494, 
            21.1625,
            21.1756,
            21.1886,
            21.2016,
            21.2145,
            21.2274,
            21.2402, 
            21.253,
            21.2657,
            21.2784,
            21.291,
            21.3036,
            21.3161,
            21.3286,
            21.341, 
            21.3534,
            21.3658,
            21.3781,
            21.3903,
            21.4026,
            21.4147,
            21.4269, 
            21.4389,
            21.451,
            21.463,
            21.475,
            21.4869,
            21.4988,
            21.5106,
            21.5225, 
            21.5342,
            21.546,
            21.5577,
            21.5694,
            21.581,
            21.5926,
            21.6042,
            21.6157, 
            21.6272,
            21.6387,
            21.6501,
            21.6616,
            21.6729,
            21.6843,
            21.6956, 
            21.7069,
            21.7182,
            21.7295,
            21.7407,
            21.7519,
            21.763,
            21.7742, 
            21.7853,
            21.7964,
            21.8075,
            21.8185,
            21.8296,
            21.8406,
            21.8516, 
            21.8626,
            21.8735,
            21.8845,
            21.8954,
            21.9063,
            21.9172,
            21.928, 
            21.9389,
            21.9497,
            21.9606,
            21.9714,
            21.9822,
            21.993,
            22.0037, 
            22.0145,
            22.0253,
            22.036,
            22.0467,
            22.0575,
            22.0682,
            22.0789, 
            22.0896,
            22.1003,
            22.111,
            22.1217,
            22.1323,
            22.143,
            22.1537,
            22.1644, 
            22.175,
            22.1857,
            22.1964,
            22.207,
            22.2177,
            22.2284,
            22.239,
            22.2497, 
            22.2604,
            22.2711,
            22.2817,
            22.2924,
            22.3031,
            22.3138,
            22.3245, 
            22.3352,
            22.3459,
            22.3566,
            22.3674,
            22.3781,
            22.3889,
            22.3996, 
            22.4104,
            22.4212,
            22.432,
            22.4428,
            22.4536,
            22.4644,
            22.4753, 
            22.4861,
            22.497,
            22.5079,
            22.5188,
            22.5297,
            22.5407,
            22.5516, 
            22.5626,
            22.5736,
            22.5846,
            22.5957,
            22.6068,
            22.6178,
            22.629, 
            22.6401,
            22.6512,
            22.6624,
            22.6736,
            22.6849,
            22.6961,
            22.7074, 
            22.7187,
            22.7301,
            22.7414,
            22.7528,
            22.7643,
            22.7757,
            22.7872, 
            22.7987,
            22.8103,
            22.8219,
            22.8335,
            22.8451,
            22.8568,
            22.8686, 
            22.8803,
            22.8921,
            22.9039,
            22.9158,
            22.9277,
            22.9397,
            22.9517, 
            22.9637,
            22.9757,
            22.9879,
            23.,
            23.0175,
            23.035,
            23.0523,
            23.0697, 
            23.0869,
            23.1041,
            23.1213,
            23.1384,
            23.1555,
            23.1725,
            23.1894, 
            23.2063,
            23.2232,
            23.24,
            23.2568,
            23.2735,
            23.2902,
            23.3069,
            23.3235, 
            23.34,
            23.3566,
            23.3731,
            23.3895,
            23.406,
            23.4224,
            23.4388,
            23.4551, 
            23.4714,
            23.4877,
            23.504,
            23.5202,
            23.5365,
            23.5527,
            23.5688,
            23.585, 
            23.6012,
            23.6173,
            23.6334,
            23.6495,
            23.6656,
            23.6817,
            23.6978, 
            23.7139,
            23.7299,
            23.746,
            23.7621,
            23.7781,
            23.7942,
            23.8102, 
            23.8263,
            23.8423,
            23.8584,
            23.8745,
            23.8906,
            23.9066,
            23.9227, 
            23.9388,
            23.955,
            23.9711,
            23.9872,
            24.0034,
            24.0196,
            24.0358,
            24.052, 
            24.0682,
            24.0845,
            24.1008,
            24.1171,
            24.1334,
            24.1498,
            24.1662, 
            24.1826,
            24.1991,
            24.2156,
            24.2321,
            24.2487,
            24.2653,
            24.2819, 
            24.2986,
            24.3153,
            24.3321,
            24.3489,
            24.3657,
            24.3826,
            24.3996, 
            24.4166,
            24.4336,
            24.4507,
            24.4679,
            24.4851,
            24.5023,
            24.5196, 
            24.537,
            24.5544,
            24.5719,
            24.5895,
            24.6071,
            24.6248,
            24.6425, 
            24.6603,
            24.6782,
            24.6962,
            24.7142,
            24.7323,
            24.7505,
            24.7687, 
            24.787,
            24.8054,
            24.8239,
            24.8425,
            24.8611,
            24.8798,
            24.8986, 
            24.9175,
            24.9365,
            24.9556,
            24.9747,
            24.994,
            25.0133,
            25.0328, 
            25.0523,
            25.0719,
            25.0916,
            25.1114,
            25.1314,
            25.1514,
            25.1715, 
            25.1917,
            25.2121,
            25.2325,
            25.253,
            25.2737,
            25.2945,
            25.3153, 
            25.3363,
            25.3574,
            25.3786,
            25.4,
            25.4214,
            25.443,
            25.4647,
            25.4865, 
            25.5085,
            25.5305,
            25.5527,
            25.575,
            25.5975,
            25.6201,
            25.6428, 
            25.6656,
            25.6886,
            25.7117,
            25.7349,
            25.7583,
            25.7818,
            25.8055, 
            25.8293,
            25.8532,
            25.8773,
            25.9016,
            25.926,
            25.9505,
            25.9752,
            26., 
            26.0309,
            26.0617,
            26.0926,
            26.1234,
            26.1542,
            26.185,
            26.2159, 
            26.2467,
            26.2775,
            26.3083,
            26.3391,
            26.3699,
            26.4008,
            26.4316, 
            26.4625,
            26.4934,
            26.5244,
            26.5553,
            26.5863,
            26.6174,
            26.6484, 
            26.6796,
            26.7107,
            26.7419,
            26.7732,
            26.8045,
            26.8359,
            26.8673, 
            26.8988,
            26.9304,
            26.962,
            26.9937,
            27.0255,
            27.0574,
            27.0894, 
            27.1214,
            27.1535,
            27.1858,
            27.2181,
            27.2505,
            27.283,
            27.3156, 
            27.3484,
            27.3812,
            27.4142,
            27.4472,
            27.4804,
            27.5138,
            27.5472, 
            27.5808,
            27.6145,
            27.6484,
            27.6823,
            27.7165,
            27.7508,
            27.7852, 
            27.8198,
            27.8545,
            27.8894,
            27.9244,
            27.9597,
            27.9951,
            28.0306, 
            28.0663,
            28.1023,
            28.1383,
            28.1746,
            28.2111,
            28.2477,
            28.2846, 
            28.3216,
            28.3588,
            28.3963,
            28.4339,
            28.4718,
            28.5099,
            28.5481, 
            28.5866,
            28.6254,
            28.6643,
            28.7035,
            28.7429,
            28.7825,
            28.8224, 
            28.8625,
            28.9029,
            28.9435,
            28.9843,
            29.0254,
            29.0668,
            29.1084, 
            29.1503,
            29.1924,
            29.2349,
            29.2775,
            29.3205,
            29.3637,
            29.4073, 
            29.4511,
            29.4952,
            29.5395,
            29.5842,
            29.6292,
            29.6745,
            29.72,
            29.7659, 
            29.8121,
            29.8586,
            29.9054,
            29.9525,
            30.,
            30.0649,
            30.1293,
            30.1931, 
            30.2566,
            30.3195,
            30.382,
            30.4442,
            30.5059,
            30.5672,
            30.6282, 
            30.6888,
            30.7491,
            30.8091,
            30.8688,
            30.9282,
            30.9873,
            31.0462, 
            31.1049,
            31.1634,
            31.2216,
            31.2798,
            31.3377,
            31.3955,
            31.4532, 
            31.5108,
            31.5683,
            31.6258,
            31.6832,
            31.7405,
            31.7979,
            31.8552, 
            31.9126,
            31.97,
            32.0275,
            32.085,
            32.1427,
            32.2004,
            32.2582,
            32.3162, 
            32.3744,
            32.4327,
            32.4913,
            32.55,
            32.609,
            32.6682,
            32.7277,
            32.7875, 
            32.8475,
            32.9079,
            32.9687,
            33.0297,
            33.0912,
            33.153,
            33.2152, 
            33.2779,
            33.341,
            33.4046,
            33.4686,
            33.5331,
            33.5981,
            33.6637, 
            33.7298,
            33.7965,
            33.8637,
            33.9315,
            34.,
            34.0815,
            34.1628,
            34.2439, 
            34.3248,
            34.4056,
            34.4863,
            34.567,
            34.6476,
            34.7283,
            34.8091, 
            34.8899,
            34.971,
            35.0522,
            35.1337,
            35.2154,
            35.2975,
            35.3799, 
            35.4628,
            35.546,
            35.6298,
            35.7141,
            35.7989,
            35.8844,
            35.9705, 
            36.0573,
            36.1448,
            36.2331,
            36.3221,
            36.4121,
            36.5029,
            36.5947, 
            36.6874,
            36.7812,
            36.876,
            36.9719,
            37.0689,
            37.1671,
            37.2665, 
            37.3672,
            37.4692,
            37.5725,
            37.6772,
            37.7833,
            37.8909,
            38.,
            38.1465, 
            38.2906,
            38.4327,
            38.5728,
            38.7112,
            38.848,
            38.9835,
            39.1177,
            39.251, 
            39.3835,
            39.5154,
            39.6469,
            39.7781,
            39.9093,
            40.0407,
            40.1723, 
            40.3045,
            40.4374,
            40.5712,
            40.7061,
            40.8422,
            40.9799,
            41.1191, 
            41.2602,
            41.4034,
            41.5487,
            41.6965,
            41.8469,
            42.,
            42.12,
            42.248, 
            42.3841,
            42.528,
            42.6798,
            42.8395,
            43.0069,
            43.1821,
            43.365,
            43.5556, 
            43.7537,
            43.9594,
            44.1726,
            44.3933,
            44.6214,
            44.8568,
            45.0996, 
            45.3496,
            45.6069,
            45.8714,
            46.1429,
            46.4216,
            46.7073,
            47.,
            47.2996, 
            47.6062,
            47.9196,
            48.2398,
            48.5667,
            48.9004,
            49.2407,
            49.5876, 
            49.9411,
            50.3012,
            50.6677,
            51.0406,
            51.4199,
            51.8055,
            52.1975, 
            52.5956,
            53.,
            53.4105,
            53.8271,
            54.2498,
            54.6784,
            55.1131,
            55.5536, 
            56.,
            56.4522,
            56.9102,
            57.3739,
            57.8433,
            58.3183,
            58.7989,
            59.285, 
            59.7767,
            60.2737,
            60.7762,
            61.284,
            61.7971,
            62.3154,
            62.839,
            63.3677, 
            63.9016 
        };
    
    // lookup table for 27-2113mm
    const float DISTANCE_LOOKUP[2087] = {
        300.,
        299.266,
        298.54,
        297.824,
        297.117,
        296.418,
        295.729,
        295.048, 
        294.375,
        293.711,
        293.055,
        292.407,
        291.768,
        291.136,
        290.512, 
        289.896,
        289.288,
        288.687,
        288.093,
        287.507,
        286.928,
        286.355, 
        285.79,
        285.232,
        284.68,
        284.135,
        283.597,
        283.065,
        282.539,
        282.019, 
        281.506,
        280.998,
        280.496,
        280.,
        279.509,
        279.024,
        278.545,
        278.07, 
        277.601,
        277.137,
        276.677,
        276.223,
        275.773,
        275.328,
        274.887, 
        274.451,
        274.019,
        273.591,
        273.167,
        272.747,
        272.331,
        271.918, 
        271.509,
        271.104,
        270.702,
        270.303,
        269.907,
        269.515,
        269.125, 
        268.738,
        268.354,
        267.972,
        267.593,
        267.216,
        266.841,
        266.469, 
        266.098,
        265.73,
        265.363,
        264.998,
        264.634,
        264.272,
        263.912, 
        263.552,
        263.194,
        262.836,
        262.48,
        262.124,
        261.769,
        261.415, 
        261.061,
        260.707,
        260.353,
        260.,
        259.585,
        259.17,
        258.756,
        258.341, 
        257.927,
        257.512,
        257.098,
        256.685,
        256.271,
        255.858,
        255.445, 
        255.033,
        254.621,
        254.209,
        253.798,
        253.387,
        252.977,
        252.568, 
        252.159,
        251.751,
        251.344,
        250.937,
        250.532,
        250.127,
        249.722, 
        249.319,
        248.917,
        248.515,
        248.115,
        247.716,
        247.317,
        246.92, 
        246.524,
        246.129,
        245.736,
        245.343,
        244.952,
        244.562,
        244.174, 
        243.787,
        243.401,
        243.017,
        242.634,
        242.253,
        241.873,
        241.495, 
        241.119,
        240.744,
        240.371,
        240.,
        239.667,
        239.336,
        239.008,
        238.682, 
        238.358,
        238.035,
        237.716,
        237.398,
        237.082,
        236.768,
        236.456, 
        236.146,
        235.838,
        235.532,
        235.228,
        234.926,
        234.625,
        234.327, 
        234.03,
        233.735,
        233.442,
        233.15,
        232.86,
        232.572,
        232.286,
        232.001, 
        231.718,
        231.436,
        231.156,
        230.877,
        230.6,
        230.324,
        230.05,
        229.778, 
        229.506,
        229.236,
        228.968,
        228.701,
        228.435,
        228.17,
        227.907, 
        227.644,
        227.384,
        227.124,
        226.865,
        226.608,
        226.351,
        226.096, 
        225.842,
        225.589,
        225.337,
        225.086,
        224.836,
        224.587,
        224.338, 
        224.091,
        223.845,
        223.599,
        223.354,
        223.11,
        222.867,
        222.624, 
        222.383,
        222.142,
        221.901,
        221.662,
        221.423,
        221.184,
        220.946, 
        220.709,
        220.472,
        220.236,
        220.,
        219.745,
        219.491,
        219.237,
        218.984, 
        218.73,
        218.478,
        218.225,
        217.973,
        217.722,
        217.47,
        217.219,
        216.969, 
        216.718,
        216.468,
        216.219,
        215.97,
        215.721,
        215.472,
        215.224, 
        214.976,
        214.728,
        214.481,
        214.234,
        213.987,
        213.74,
        213.494, 
        213.248,
        213.002,
        212.757,
        212.512,
        212.267,
        212.022,
        211.778, 
        211.534,
        211.29,
        211.046,
        210.803,
        210.559,
        210.316,
        210.073, 
        209.831,
        209.588,
        209.346,
        209.104,
        208.862,
        208.621,
        208.379, 
        208.138,
        207.897,
        207.656,
        207.415,
        207.174,
        206.934,
        206.693, 
        206.453,
        206.213,
        205.973,
        205.733,
        205.493,
        205.253,
        205.014, 
        204.775,
        204.535,
        204.296,
        204.057,
        203.818,
        203.579,
        203.34, 
        203.101,
        202.862,
        202.623,
        202.385,
        202.146,
        201.908,
        201.669, 
        201.431,
        201.192,
        200.954,
        200.715,
        200.477,
        200.238,
        200.,
        199.75, 
        199.499,
        199.249,
        198.999,
        198.749,
        198.499,
        198.248,
        197.998, 
        197.748,
        197.498,
        197.248,
        196.998,
        196.749,
        196.499,
        196.249,
        196., 
        195.75,
        195.501,
        195.251,
        195.002,
        194.753,
        194.504,
        194.255, 
        194.007,
        193.758,
        193.51,
        193.261,
        193.013,
        192.765,
        192.518,
        192.27, 
        192.023,
        191.775,
        191.528,
        191.281,
        191.035,
        190.788,
        190.542, 
        190.296,
        190.05,
        189.804,
        189.559,
        189.314,
        189.069,
        188.824,
        188.58, 
        188.336,
        188.092,
        187.848,
        187.605,
        187.362,
        187.119,
        186.877, 
        186.635,
        186.393,
        186.151,
        185.91,
        185.669,
        185.429,
        185.189, 
        184.949,
        184.709,
        184.47,
        184.231,
        183.993,
        183.755,
        183.517,
        183.28, 
        183.043,
        182.806,
        182.57,
        182.334,
        182.099,
        181.864,
        181.629, 
        181.395,
        181.162,
        180.928,
        180.696,
        180.463,
        180.231,
        180.,
        179.786, 
        179.572,
        179.358,
        179.145,
        178.933,
        178.721,
        178.51,
        178.299, 
        178.089,
        177.879,
        177.67,
        177.461,
        177.252,
        177.044,
        176.837,
        176.63, 
        176.423,
        176.217,
        176.011,
        175.806,
        175.601,
        175.396,
        175.192, 
        174.988,
        174.785,
        174.582,
        174.38,
        174.177,
        173.976,
        173.774, 
        173.573,
        173.372,
        173.172,
        172.972,
        172.772,
        172.573,
        172.373, 
        172.175,
        171.976,
        171.778,
        171.58,
        171.382,
        171.185,
        170.988, 
        170.791,
        170.594,
        170.398,
        170.202,
        170.006,
        169.811,
        169.615, 
        169.42,
        169.225,
        169.031,
        168.836,
        168.642,
        168.448,
        168.254,
        168.06, 
        167.866,
        167.673,
        167.48,
        167.286,
        167.094,
        166.901,
        166.708, 
        166.515,
        166.323,
        166.131,
        165.938,
        165.746,
        165.554,
        165.362, 
        165.171,
        164.979,
        164.787,
        164.596,
        164.404,
        164.212,
        164.021, 
        163.83,
        163.638,
        163.447,
        163.255,
        163.064,
        162.873,
        162.682,
        162.49, 
        162.299,
        162.108,
        161.916,
        161.725,
        161.533,
        161.342,
        161.15, 
        160.959,
        160.767,
        160.576,
        160.384,
        160.192,
        160.,
        159.792,
        159.583, 
        159.374,
        159.166,
        158.957,
        158.748,
        158.539,
        158.33,
        158.122, 
        157.913,
        157.704,
        157.495,
        157.285,
        157.076,
        156.867,
        156.658, 
        156.449,
        156.24,
        156.03,
        155.821,
        155.612,
        155.403,
        155.194,
        154.984, 
        154.775,
        154.566,
        154.357,
        154.148,
        153.939,
        153.73,
        153.521, 
        153.312,
        153.103,
        152.894,
        152.685,
        152.476,
        152.268,
        152.059, 
        151.851,
        151.642,
        151.434,
        151.225,
        151.017,
        150.809,
        150.601, 
        150.393,
        150.185,
        149.977,
        149.769,
        149.562,
        149.354,
        149.147, 
        148.94,
        148.733,
        148.526,
        148.319,
        148.112,
        147.906,
        147.699, 
        147.493,
        147.287,
        147.081,
        146.875,
        146.669,
        146.464,
        146.259, 
        146.054,
        145.849,
        145.644,
        145.439,
        145.235,
        145.031,
        144.827, 
        144.623,
        144.419,
        144.216,
        144.013,
        143.81,
        143.607,
        143.405, 
        143.202,
        143.,
        142.798,
        142.597,
        142.396,
        142.194,
        141.994,
        141.793, 
        141.593,
        141.393,
        141.193,
        140.993,
        140.794,
        140.595,
        140.397, 
        140.198,
        140.,
        139.677,
        139.359,
        139.044,
        138.733,
        138.426,
        138.122, 
        137.823,
        137.527,
        137.235,
        136.947,
        136.662,
        136.381,
        136.104, 
        135.83,
        135.559,
        135.292,
        135.029,
        134.769,
        134.512,
        134.258, 
        134.008,
        133.761,
        133.518,
        133.277,
        133.04,
        132.805,
        132.574, 
        132.346,
        132.121,
        131.899,
        131.68,
        131.463,
        131.25,
        131.039,
        130.831, 
        130.626,
        130.424,
        130.224,
        130.027,
        129.833,
        129.641,
        129.452, 
        129.265,
        129.08,
        128.899,
        128.719,
        128.542,
        128.367,
        128.195, 
        128.024,
        127.856,
        127.691,
        127.527,
        127.365,
        127.206,
        127.048, 
        126.893,
        126.74,
        126.588,
        126.438,
        126.291,
        126.145,
        126.001, 
        125.858,
        125.718,
        125.579,
        125.442,
        125.306,
        125.172,
        125.039, 
        124.908,
        124.779,
        124.651,
        124.524,
        124.399,
        124.275,
        124.152, 
        124.03,
        123.91,
        123.791,
        123.673,
        123.557,
        123.441,
        123.326,
        123.213, 
        123.1,
        122.988,
        122.878,
        122.768,
        122.659,
        122.55,
        122.443,
        122.336, 
        122.23,
        122.125,
        122.02,
        121.916,
        121.812,
        121.709,
        121.606,
        121.504, 
        121.402,
        121.301,
        121.2,
        121.099,
        120.998,
        120.898,
        120.798,
        120.698, 
        120.598,
        120.499,
        120.399,
        120.299,
        120.2,
        120.1,
        120.,
        120.061, 
        120.112,
        120.154,
        120.188,
        120.212,
        120.228,
        120.235,
        120.234, 
        120.224,
        120.207,
        120.182,
        120.149,
        120.108,
        120.061,
        120.006, 
        119.943,
        119.874,
        119.799,
        119.716,
        119.627,
        119.532,
        119.431, 
        119.324,
        119.211,
        119.093,
        118.969,
        118.84,
        118.705,
        118.566, 
        118.422,
        118.273,
        118.119,
        117.962,
        117.8,
        117.634,
        117.464,
        117.291, 
        117.114,
        116.934,
        116.75,
        116.564,
        116.374,
        116.182,
        115.987,
        115.79, 
        115.591,
        115.389,
        115.186,
        114.981,
        114.774,
        114.566,
        114.356, 
        114.145,
        113.934,
        113.721,
        113.508,
        113.295,
        113.081,
        112.867, 
        112.653,
        112.439,
        112.225,
        112.012,
        111.8,
        111.588,
        111.378,
        111.168, 
        110.96,
        110.753,
        110.548,
        110.345,
        110.143,
        109.944,
        109.746, 
        109.552,
        109.36,
        109.17,
        108.984,
        108.8,
        108.641,
        108.486,
        108.336, 
        108.19,
        108.048,
        107.91,
        107.776,
        107.647,
        107.521,
        107.398,
        107.28, 
        107.164,
        107.052,
        106.944,
        106.838,
        106.736,
        106.637,
        106.54, 
        106.446,
        106.355,
        106.267,
        106.181,
        106.097,
        106.016,
        105.936, 
        105.859,
        105.784,
        105.71,
        105.639,
        105.569,
        105.5,
        105.424,
        105.349, 
        105.275,
        105.202,
        105.13,
        105.059,
        104.988,
        104.919,
        104.85,
        104.782, 
        104.714,
        104.647,
        104.58,
        104.514,
        104.448,
        104.382,
        104.316, 
        104.251,
        104.185,
        104.12,
        104.054,
        103.988,
        103.922,
        103.856, 
        103.789,
        103.722,
        103.654,
        103.586,
        103.517,
        103.448,
        103.377, 
        103.306,
        103.234,
        103.161,
        103.087,
        103.012,
        102.935,
        102.858, 
        102.779,
        102.699,
        102.617,
        102.534,
        102.449,
        102.363,
        102.275, 
        102.185,
        102.094,
        102.,
        101.86,
        101.72,
        101.58,
        101.441,
        101.301, 
        101.162,
        101.023,
        100.884,
        100.745,
        100.606,
        100.468,
        100.33, 
        100.192,
        100.055,
        99.9183,
        99.7818,
        99.6457,
        99.5101,
        99.375, 
        99.2404,
        99.1063,
        98.9727,
        98.8398,
        98.7074,
        98.5757,
        98.4446, 
        98.3142,
        98.1845,
        98.0556,
        97.9274,
        97.8,
        97.6734,
        97.5476,
        97.4227, 
        97.2987,
        97.1756,
        97.0534,
        96.9322,
        96.812,
        96.6927,
        96.5745, 
        96.4574,
        96.3414,
        96.2264,
        96.1126,
        96.,
        95.8891,
        95.7794,
        95.6709, 
        95.5637,
        95.4577,
        95.353,
        95.2496,
        95.1474,
        95.0466,
        94.9471, 
        94.8489,
        94.7521,
        94.6566,
        94.5625,
        94.4697,
        94.3784,
        94.2885,
        94.2, 
        94.1217,
        94.0451,
        93.9703,
        93.8971,
        93.8254,
        93.7552,
        93.6864, 
        93.619,
        93.5528,
        93.4877,
        93.4238,
        93.3608,
        93.2989,
        93.2377, 
        93.1774,
        93.1178,
        93.0589,
        93.0005,
        92.9426,
        92.8851,
        92.8279, 
        92.771,
        92.7143,
        92.6577,
        92.6012,
        92.5446,
        92.4879,
        92.431,
        92.3738, 
        92.3163,
        92.2584,
        92.2,
        92.1238,
        92.0471,
        91.9698,
        91.892,
        91.8136, 
        91.7348,
        91.6555,
        91.5757,
        91.4955,
        91.4149,
        91.3339,
        91.2526, 
        91.1709,
        91.0889,
        91.0067,
        90.9241,
        90.8413,
        90.7582,
        90.675, 
        90.5916,
        90.508,
        90.4242,
        90.3404,
        90.2564,
        90.1724,
        90.0883, 
        90.0042,
        89.92,
        89.8359,
        89.7518,
        89.6678,
        89.5839,
        89.5,
        89.4363, 
        89.3727,
        89.3089,
        89.2449,
        89.1807,
        89.116,
        89.0509,
        88.9853, 
        88.9189,
        88.8519,
        88.784,
        88.7151,
        88.6452,
        88.5743,
        88.5021, 
        88.4285,
        88.3537,
        88.2773,
        88.1993,
        88.1197,
        88.0383,
        87.955, 
        87.8698,
        87.7826,
        87.6932,
        87.6016,
        87.5076,
        87.4113,
        87.3125, 
        87.211,
        87.1069,
        87.,
        86.8672,
        86.7334,
        86.5988,
        86.4637,
        86.3282, 
        86.1926,
        86.0571,
        85.9218,
        85.7871,
        85.653,
        85.5198,
        85.3876, 
        85.2568,
        85.1276,
        85.,
        84.9013,
        84.8062,
        84.7144,
        84.6259,
        84.5405, 
        84.458,
        84.3784,
        84.3014,
        84.227,
        84.155,
        84.0852,
        84.0176,
        83.9519, 
        83.888,
        83.8259,
        83.7653,
        83.7061,
        83.6481,
        83.5913,
        83.5355, 
        83.4805,
        83.4262,
        83.3725,
        83.3191,
        83.2661,
        83.2132,
        83.1602, 
        83.1072,
        83.0538,
        83.,
        82.9239,
        82.8475,
        82.771,
        82.6942,
        82.6173, 
        82.5403,
        82.4632,
        82.386,
        82.3089,
        82.2317,
        82.1546,
        82.0776, 
        82.0008,
        81.9241,
        81.8475,
        81.7712,
        81.6952,
        81.6194,
        81.544, 
        81.4689,
        81.3942,
        81.3199,
        81.2461,
        81.1728,
        81.1,
        81.0309,
        80.9623, 
        80.8942,
        80.8267,
        80.7597,
        80.6932,
        80.6272,
        80.5618,
        80.4969, 
        80.4325,
        80.3686,
        80.3052,
        80.2424,
        80.18,
        80.1182,
        80.0569,
        79.9962, 
        79.9359,
        79.8761,
        79.8169,
        79.7582,
        79.7,
        79.6471,
        79.595,
        79.5435, 
        79.4927,
        79.4425,
        79.3929,
        79.3439,
        79.2955,
        79.2476,
        79.2002, 
        79.1532,
        79.1068,
        79.0607,
        79.015,
        78.9697,
        78.9247,
        78.88,
        78.8356, 
        78.7915,
        78.7476,
        78.7039,
        78.6604,
        78.617,
        78.5737,
        78.5305, 
        78.4874,
        78.4443,
        78.4012,
        78.3582,
        78.315,
        78.2718,
        78.2285, 
        78.1851,
        78.1415,
        78.0978,
        78.0538,
        78.0096,
        77.9651,
        77.9203, 
        77.8753,
        77.8299,
        77.7841,
        77.7379,
        77.6913,
        77.6442,
        77.5966, 
        77.5486,
        77.5,
        77.4401,
        77.3798,
        77.3192,
        77.2584,
        77.1973,
        77.1359, 
        77.0743,
        77.0124,
        76.9504,
        76.8881,
        76.8257,
        76.7631,
        76.7003, 
        76.6374,
        76.5744,
        76.5113,
        76.4481,
        76.3849,
        76.3215,
        76.2582, 
        76.1948,
        76.1313,
        76.0679,
        76.0046,
        75.9412,
        75.8779,
        75.8147, 
        75.7515,
        75.6884,
        75.6255,
        75.5627,
        75.5,
        75.4398,
        75.3797,
        75.3196, 
        75.2596,
        75.1996,
        75.1396,
        75.0797,
        75.0198,
        74.9599,
        74.9,
        74.8401, 
        74.7802,
        74.7203,
        74.6604,
        74.6004,
        74.5404,
        74.4804,
        74.4203, 
        74.3602,
        74.3,
        74.2397,
        74.1793,
        74.1188,
        74.0582,
        73.9975,
        73.9367, 
        73.8758,
        73.8148,
        73.7537,
        73.6924,
        73.6311,
        73.5695,
        73.5079, 
        73.446,
        73.384,
        73.3219,
        73.2596,
        73.1971,
        73.1344,
        73.0715,
        73.0085, 
        72.9452,
        72.8817,
        72.818,
        72.7541,
        72.69,
        72.6256,
        72.561,
        72.4961, 
        72.431,
        72.3656,
        72.3,
        72.2268,
        72.1534,
        72.0798,
        72.0061,
        71.9322, 
        71.8583,
        71.7844,
        71.7105,
        71.6366,
        71.5628,
        71.4891,
        71.4156, 
        71.3423,
        71.2692,
        71.1964,
        71.124,
        71.0518,
        70.9801,
        70.9088, 
        70.8379,
        70.7675,
        70.6977,
        70.6285,
        70.5599,
        70.4919,
        70.4246, 
        70.3581,
        70.2923,
        70.2274,
        70.1632,
        70.1,
        70.0551,
        70.0115,
        69.9691, 
        69.9279,
        69.8878,
        69.8489,
        69.811,
        69.7741,
        69.7383,
        69.7034, 
        69.6694,
        69.6364,
        69.6042,
        69.5729,
        69.5423,
        69.5125,
        69.4835, 
        69.4551,
        69.4274,
        69.4003,
        69.3738,
        69.3478,
        69.3224,
        69.2974, 
        69.2729,
        69.2488,
        69.2251,
        69.2017,
        69.1787,
        69.1559,
        69.1333, 
        69.111,
        69.0888,
        69.0668,
        69.0448,
        69.0229,
        69.0011,
        68.9792, 
        68.9573,
        68.9353,
        68.9133,
        68.891,
        68.8686,
        68.846,
        68.8232,
        68.8, 
        68.764,
        68.7277,
        68.6911,
        68.6542,
        68.617,
        68.5796,
        68.5418,
        68.5037, 
        68.4653,
        68.4266,
        68.3877,
        68.3484,
        68.3089,
        68.269,
        68.2289, 
        68.1885,
        68.1478,
        68.1069,
        68.0656,
        68.0241,
        67.9823,
        67.9402, 
        67.8979,
        67.8553,
        67.8124,
        67.7692,
        67.7258,
        67.6821,
        67.6381, 
        67.5939,
        67.5494,
        67.5047,
        67.4597,
        67.4144,
        67.3689,
        67.3231, 
        67.2771,
        67.2308,
        67.1843,
        67.1375,
        67.0905,
        67.0433,
        66.9957, 
        66.948,
        66.9,
        66.8483,
        66.7963,
        66.7441,
        66.6916,
        66.639,
        66.5862, 
        66.5332,
        66.4801,
        66.4268,
        66.3733,
        66.3197,
        66.266,
        66.2122, 
        66.1583,
        66.1043,
        66.0503,
        65.9961,
        65.942,
        65.8877,
        65.8335, 
        65.7792,
        65.725,
        65.6707,
        65.6164,
        65.5622,
        65.5081,
        65.4539, 
        65.3999,
        65.3459,
        65.292,
        65.2382,
        65.1845,
        65.1309,
        65.0775, 
        65.0242,
        64.971,
        64.9181,
        64.8653,
        64.8127,
        64.7603,
        64.7081, 
        64.6561,
        64.6044,
        64.5529,
        64.5016,
        64.4507,
        64.4,
        64.3573,
        64.3148, 
        64.2727,
        64.2308,
        64.1892,
        64.1479,
        64.1068,
        64.066,
        64.0254,
        63.985, 
        63.9449,
        63.905,
        63.8653,
        63.8257,
        63.7864,
        63.7472,
        63.7083, 
        63.6694,
        63.6308,
        63.5922,
        63.5538,
        63.5156,
        63.4774,
        63.4394, 
        63.4015,
        63.3636,
        63.3259,
        63.2882,
        63.2506,
        63.2131,
        63.1756, 
        63.1381,
        63.1007,
        63.0633,
        63.026,
        62.9886,
        62.9513,
        62.9139, 
        62.8765,
        62.8391,
        62.8017,
        62.7642,
        62.7267,
        62.6891,
        62.6514, 
        62.6137,
        62.5759,
        62.538,
        62.5,
        62.4584,
        62.4167,
        62.375,
        62.3331, 
        62.2912,
        62.2492,
        62.207,
        62.1648,
        62.1226,
        62.0802,
        62.0378, 
        61.9952,
        61.9526,
        61.91,
        61.8672,
        61.8244,
        61.7815,
        61.7385,
        61.6955, 
        61.6524,
        61.6092,
        61.5659,
        61.5226,
        61.4792,
        61.4358,
        61.3923, 
        61.3487,
        61.3051,
        61.2614,
        61.2177,
        61.1739,
        61.13,
        61.0861,
        61.0422, 
        60.9982,
        60.9541,
        60.91,
        60.8659,
        60.8217,
        60.7774,
        60.7331,
        60.6888, 
        60.6444,
        60.6,
        60.5539,
        60.5077,
        60.4615,
        60.4152,
        60.369,
        60.3227, 
        60.2764,
        60.2301,
        60.1838,
        60.1375,
        60.0912,
        60.0449,
        59.9987, 
        59.9525,
        59.9063,
        59.8602,
        59.8141,
        59.7681,
        59.7221,
        59.6762, 
        59.6303,
        59.5846,
        59.5389,
        59.4933,
        59.4478,
        59.4025,
        59.3572, 
        59.312,
        59.267,
        59.222,
        59.1772,
        59.1326,
        59.0881,
        59.0437,
        58.9995, 
        58.9554,
        58.9115,
        58.8678,
        58.8243,
        58.7809,
        58.7378,
        58.6948, 
        58.652,
        58.6095,
        58.5671,
        58.525,
        58.4831,
        58.4414,
        58.4,
        58.3744, 
        58.3492,
        58.3244,
        58.3001,
        58.2761,
        58.2525,
        58.2292,
        58.2063, 
        58.1837,
        58.1613,
        58.1393,
        58.1174,
        58.0959,
        58.0745,
        58.0533, 
        58.0323,
        58.0114,
        57.9907,
        57.97,
        57.9495,
        57.9291,
        57.9087,
        57.8883, 
        57.868,
        57.8476,
        57.8272,
        57.8068,
        57.7864,
        57.7658,
        57.7452, 
        57.7244,
        57.7035,
        57.6824,
        57.6612,
        57.6398,
        57.6181,
        57.5962, 
        57.5741,
        57.5517,
        57.529,
        57.506,
        57.4826,
        57.4589,
        57.4349,
        57.4104, 
        57.3856,
        57.3603,
        57.3345,
        57.3083,
        57.2816,
        57.2544,
        57.2267, 
        57.1985,
        57.1696,
        57.1402,
        57.1102,
        57.0796,
        57.0483,
        57.0164, 
        56.9838,
        56.9505,
        56.9164,
        56.8817,
        56.8462,
        56.8099,
        56.7728, 
        56.7349,
        56.6961,
        56.6565,
        56.6161,
        56.5747,
        56.5325,
        56.4893, 
        56.4451,
        56.4,
        56.3429,
        56.2853,
        56.2271,
        56.1685,
        56.1093,
        56.0497, 
        55.9896,
        55.929,
        55.868,
        55.8065,
        55.7446,
        55.6823,
        55.6195,
        55.5564, 
        55.4929,
        55.4289,
        55.3646,
        55.3,
        55.235,
        55.1697,
        55.104,
        55.038, 
        54.9717,
        54.9051,
        54.8383,
        54.7711,
        54.7037,
        54.636,
        54.5681,
        54.5, 
        54.4292,
        54.3582,
        54.287,
        54.2157,
        54.1443,
        54.0728,
        54.0012, 
        53.9296,
        53.858,
        53.7864,
        53.7149,
        53.6434,
        53.572,
        53.5008,
        53.4297, 
        53.3588,
        53.2881,
        53.2176,
        53.1474,
        53.0775,
        53.0079,
        52.9386, 
        52.8697,
        52.8012,
        52.7331,
        52.6655,
        52.5983,
        52.5317,
        52.4656,
        52.4, 
        52.3491,
        52.2991,
        52.2502,
        52.2023,
        52.1553,
        52.1093,
        52.0642,
        52.02, 
        51.9767,
        51.9343,
        51.8927,
        51.852,
        51.8121,
        51.773,
        51.7346,
        51.697, 
        51.6602,
        51.624,
        51.5886,
        51.5538,
        51.5197,
        51.4862,
        51.4534, 
        51.4212,
        51.3895,
        51.3584,
        51.3279,
        51.2979,
        51.2683,
        51.2393, 
        51.2108,
        51.1826,
        51.155,
        51.1277,
        51.1008,
        51.0743,
        51.0482, 
        51.0223,
        50.9968,
        50.9716,
        50.9467,
        50.922,
        50.8976,
        50.8734, 
        50.8494,
        50.8255,
        50.8018,
        50.7783,
        50.7549,
        50.7316,
        50.7084, 
        50.6852,
        50.6621,
        50.639,
        50.6159,
        50.5928,
        50.5697,
        50.5466, 
        50.5233,
        50.5,
        50.4766,
        50.453,
        50.4293,
        50.4054,
        50.3814,
        50.3571, 
        50.3326,
        50.3079,
        50.2829,
        50.2577,
        50.2321,
        50.2062,
        50.18,
        50.1535, 
        50.1265,
        50.0992,
        50.0714,
        50.0432,
        50.0146,
        49.9854,
        49.9558, 
        49.9257,
        49.8951,
        49.8639,
        49.8321,
        49.7998,
        49.7668,
        49.7332, 
        49.699,
        49.6641,
        49.6286,
        49.5923,
        49.5553,
        49.5175,
        49.4791, 
        49.4398,
        49.3997,
        49.3588,
        49.3171,
        49.2745,
        49.2311,
        49.1867, 
        49.1415,
        49.0953,
        49.0481,
        49.,
        48.9715,
        48.9432,
        48.9151,
        48.8871, 
        48.8592,
        48.8315,
        48.804,
        48.7765,
        48.7493,
        48.7222,
        48.6952, 
        48.6684,
        48.6417,
        48.6151,
        48.5887,
        48.5624,
        48.5363,
        48.5103, 
        48.4844,
        48.4587,
        48.4331,
        48.4076,
        48.3822,
        48.357,
        48.3319, 
        48.3069,
        48.2821,
        48.2573,
        48.2327,
        48.2082,
        48.1838,
        48.1596, 
        48.1354,
        48.1114,
        48.0875,
        48.0637,
        48.0399,
        48.0163,
        47.9929, 
        47.9695,
        47.9462,
        47.923,
        47.8999,
        47.877,
        47.8541,
        47.8313,
        47.8086, 
        47.786,
        47.7635,
        47.7411,
        47.7188,
        47.6966,
        47.6744,
        47.6524, 
        47.6304,
        47.6085,
        47.5867,
        47.565,
        47.5434,
        47.5218,
        47.5004, 
        47.4789,
        47.4576,
        47.4364,
        47.4152,
        47.3941,
        47.373,
        47.3521, 
        47.3312,
        47.3103,
        47.2895,
        47.2688,
        47.2482,
        47.2276,
        47.207, 
        47.1866,
        47.1662,
        47.1458,
        47.1255,
        47.1052,
        47.085,
        47.0649, 
        47.0448,
        47.0247,
        47.0047,
        46.9847,
        46.9648,
        46.9449,
        46.9251, 
        46.9053,
        46.8855,
        46.8658,
        46.8461,
        46.8265,
        46.8068,
        46.7872, 
        46.7677,
        46.7481,
        46.7286,
        46.7092,
        46.6897,
        46.6703,
        46.6509, 
        46.6315,
        46.6121,
        46.5928,
        46.5734,
        46.5541,
        46.5348,
        46.5155, 
        46.4963,
        46.477,
        46.4577,
        46.4385,
        46.4192,
        46.4,
        46.5326,
        46.6606, 
        46.7841,
        46.9031,
        47.0177,
        47.1279,
        47.2338,
        47.3353,
        47.4326, 
        47.5257,
        47.6147,
        47.6995,
        47.7803,
        47.8571,
        47.9299,
        47.9987, 
        48.0637,
        48.1248,
        48.1822,
        48.2358,
        48.2858,
        48.332,
        48.3747, 
        48.4138,
        48.4494,
        48.4816,
        48.5103,
        48.5357,
        48.5577,
        48.5764, 
        48.5919,
        48.6043,
        48.6134,
        48.6195,
        48.6226,
        48.6226,
        48.6197, 
        48.6138,
        48.6052,
        48.5936,
        48.5793,
        48.5623,
        48.5426,
        48.5203, 
        48.4954,
        48.4679,
        48.438,
        48.4056,
        48.3707,
        48.3336,
        48.2941, 
        48.2524,
        48.2084,
        48.1623,
        48.114,
        48.0636,
        48.0113,
        47.9569, 
        47.9006,
        47.8424,
        47.7823,
        47.7205,
        47.6568,
        47.5915,
        47.5245, 
        47.4559,
        47.3857,
        47.314,
        47.2408,
        47.1662,
        47.0901,
        47.0128, 
        46.9341,
        46.8542,
        46.7731,
        46.6908,
        46.6074,
        46.523,
        46.4375,
        46.351, 
        46.2637,
        46.1754,
        46.0863,
        45.9964,
        45.9058,
        45.8145,
        45.7225, 
        45.6299,
        45.5368,
        45.4431,
        45.349,
        45.2545,
        45.1596,
        45.0643, 
        44.9688,
        44.873,
        44.7771,
        44.681,
        44.5848,
        44.4886,
        44.3923,
        44.2961, 
        44.2,
        44.104,
        44.0082,
        43.9126,
        43.8173,
        43.7223,
        43.6277,
        43.5335, 
        43.4397,
        43.3464,
        43.2537,
        43.1616,
        43.0701,
        42.9793,
        42.8893,
        42.8, 
        42.7115,
        42.624,
        42.5373,
        42.4516,
        42.3669,
        42.2832,
        42.2007, 
        42.1193,
        42.0391,
        41.9602,
        41.8825,
        41.8061,
        41.7312,
        41.6576, 
        41.5856,
        41.515,
        41.446,
        41.3787,
        41.3129,
        41.2489,
        41.1866,
        41.1262, 
        41.0675,
        41.0108,
        40.9559,
        40.9031,
        40.8523,
        40.8035,
        40.7569, 
        40.7124,
        40.6701,
        40.6301,
        40.5924,
        40.557,
        40.5241,
        40.4935, 
        40.4655,
        40.44,
        40.417,
        40.3967,
        40.3791,
        40.3642,
        40.352,
        40.3426, 
        40.3361,
        40.3325,
        40.3319,
        40.3342,
        40.3396,
        40.348,
        40.3596, 
        40.3744,
        40.3924,
        40.4136,
        40.4382,
        40.4661,
        40.4975,
        40.5323, 
        40.5706,
        40.6124,
        40.6578,
        40.7069,
        40.7597,
        40.8161,
        40.8764, 
        40.9405,
        41.0084,
        41.0803,
        41.1561,
        41.236,
        41.3199,
        41.4079,
        41.5
    };
}