#pragma once

namespace phil {
    // lookup table for 18-63mm
    const float REFLECTANCE_LOOKUP_LEFT[767] = {
         15.,
        15.0248,
        15.0494,
        15.074,
        15.0984,
        15.1228,
        15.147,
        15.1711, 
        15.1951,
        15.219,
        15.2429,
        15.2665,
        15.2901,
        15.3136,
        15.337,
        15.3603, 
        15.3835,
        15.4066,
        15.4295,
        15.4524,
        15.4752,
        15.4979,
        15.5204, 
        15.5429,
        15.5653,
        15.5876,
        15.6098,
        15.6319,
        15.6538,
        15.6757, 
        15.6976,
        15.7193,
        15.7409,
        15.7624,
        15.7838,
        15.8052,
        15.8264, 
        15.8476,
        15.8687,
        15.8896,
        15.9105,
        15.9313,
        15.952,
        15.9727, 
        15.9932,
        16.0137,
        16.034,
        16.0543,
        16.0745,
        16.0946,
        16.1146, 
        16.1346,
        16.1545,
        16.1742,
        16.1939,
        16.2136,
        16.2331,
        16.2526, 
        16.272,
        16.2913,
        16.3105,
        16.3296,
        16.3487,
        16.3677,
        16.3866, 
        16.4055,
        16.4243,
        16.443,
        16.4616,
        16.4801,
        16.4986,
        16.517,
        16.5354, 
        16.5536,
        16.5718,
        16.59,
        16.608,
        16.626,
        16.6439,
        16.6618,
        16.6796, 
        16.6973,
        16.715,
        16.7326,
        16.7501,
        16.7676,
        16.785,
        16.8023,
        16.8196, 
        16.8368,
        16.854,
        16.8711,
        16.8881,
        16.9051,
        16.922,
        16.9388,
        16.9556, 
        16.9724,
        16.9891,
        17.0057,
        17.0223,
        17.0388,
        17.0553,
        17.0717, 
        17.0881,
        17.1044,
        17.1206,
        17.1368,
        17.153,
        17.1691,
        17.1851, 
        17.2011,
        17.2171,
        17.233,
        17.2489,
        17.2647,
        17.2804,
        17.2962, 
        17.3118,
        17.3275,
        17.3431,
        17.3586,
        17.3741,
        17.3896,
        17.405, 
        17.4204,
        17.4357,
        17.451,
        17.4662,
        17.4815,
        17.4966,
        17.5118, 
        17.5269,
        17.5419,
        17.557,
        17.572,
        17.5869,
        17.6018,
        17.6167,
        17.6316, 
        17.6464,
        17.6612,
        17.676,
        17.6907,
        17.7054,
        17.72,
        17.7347,
        17.7493, 
        17.7639,
        17.7784,
        17.7929,
        17.8074,
        17.8219,
        17.8363,
        17.8508, 
        17.8652,
        17.8795,
        17.8939,
        17.9082,
        17.9225,
        17.9368,
        17.951, 
        17.9653,
        17.9795,
        17.9937,
        18.0079,
        18.022,
        18.0362,
        18.0503, 
        18.0644,
        18.0785,
        18.0926,
        18.1067,
        18.1207,
        18.1348,
        18.1488, 
        18.1628,
        18.1768,
        18.1908,
        18.2047,
        18.2187,
        18.2327,
        18.2466, 
        18.2605,
        18.2745,
        18.2884,
        18.3023,
        18.3162,
        18.3301,
        18.344, 
        18.3579,
        18.3718,
        18.3856,
        18.3995,
        18.4134,
        18.4273,
        18.4411, 
        18.455,
        18.4689,
        18.4827,
        18.4966,
        18.5105,
        18.5244,
        18.5382, 
        18.5521,
        18.566,
        18.5799,
        18.5938,
        18.6077,
        18.6216,
        18.6355, 
        18.6494,
        18.6633,
        18.6772,
        18.6912,
        18.7051,
        18.7191,
        18.7331, 
        18.747,
        18.761,
        18.775,
        18.789,
        18.8031,
        18.8171,
        18.8312,
        18.8452, 
        18.8593,
        18.8734,
        18.8875,
        18.9017,
        18.9158,
        18.93,
        18.9442,
        18.9584, 
        18.9726,
        18.9869,
        19.0011,
        19.0154,
        19.0297,
        19.0441,
        19.0584, 
        19.0728,
        19.0872,
        19.1016,
        19.1161,
        19.1306,
        19.1451,
        19.1596, 
        19.1742,
        19.1887,
        19.2034,
        19.218,
        19.2327,
        19.2474,
        19.2621, 
        19.2769,
        19.2917,
        19.3065,
        19.3214,
        19.3363,
        19.3512,
        19.3662, 
        19.3812,
        19.3963,
        19.4113,
        19.4264,
        19.4416,
        19.4568,
        19.472, 
        19.4873,
        19.5026,
        19.5179,
        19.5333,
        19.5488,
        19.5642,
        19.5798, 
        19.5953,
        19.6109,
        19.6266,
        19.6423,
        19.658,
        19.6738,
        19.6896, 
        19.7055,
        19.7214,
        19.7374,
        19.7534,
        19.7695,
        19.7856,
        19.8018, 
        19.818,
        19.8343,
        19.8506,
        19.867,
        19.8834,
        19.8999,
        19.9165,
        19.9331, 
        19.9497,
        19.9664,
        19.9832,
        20.,
        20.0198,
        20.0395,
        20.0593,
        20.0791, 
        20.0989,
        20.1187,
        20.1386,
        20.1584,
        20.1783,
        20.1982,
        20.2181, 
        20.238,
        20.2579,
        20.2778,
        20.2978,
        20.3178,
        20.3378,
        20.3579, 
        20.3779,
        20.398,
        20.4181,
        20.4382,
        20.4584,
        20.4786,
        20.4988, 
        20.5191,
        20.5393,
        20.5596,
        20.58,
        20.6004,
        20.6208,
        20.6412,
        20.6617, 
        20.6822,
        20.7028,
        20.7234,
        20.744,
        20.7647,
        20.7854,
        20.8061, 
        20.8269,
        20.8478,
        20.8687,
        20.8896,
        20.9106,
        20.9316,
        20.9527, 
        20.9738,
        20.9949,
        21.0162,
        21.0374,
        21.0588,
        21.0801,
        21.1016, 
        21.123,
        21.1446,
        21.1662,
        21.1878,
        21.2095,
        21.2313,
        21.2532,
        21.275, 
        21.297,
        21.319,
        21.3411,
        21.3632,
        21.3854,
        21.4077,
        21.4301,
        21.4525, 
        21.4749,
        21.4975,
        21.5201,
        21.5428,
        21.5656,
        21.5884,
        21.6113, 
        21.6343,
        21.6573,
        21.6805,
        21.7037,
        21.727,
        21.7503,
        21.7738, 
        21.7973,
        21.8209,
        21.8446,
        21.8684,
        21.8923,
        21.9162,
        21.9402, 
        21.9644,
        21.9886,
        22.0129,
        22.0372,
        22.0617,
        22.0863,
        22.1109, 
        22.1357,
        22.1605,
        22.1855,
        22.2105,
        22.2356,
        22.2609,
        22.2862, 
        22.3116,
        22.3371,
        22.3627,
        22.3885,
        22.4143,
        22.4402,
        22.4663, 
        22.4924,
        22.5186,
        22.545,
        22.5715,
        22.598,
        22.6247,
        22.6515,
        22.6784, 
        22.7054,
        22.7325,
        22.7598,
        22.7871,
        22.8146,
        22.8422,
        22.8698, 
        22.8977,
        22.9256,
        22.9537,
        22.9818,
        23.0101,
        23.0385,
        23.0671, 
        23.0958,
        23.1245,
        23.1535,
        23.1825,
        23.2117,
        23.241,
        23.2704,
        23.3, 
        23.3296,
        23.3595,
        23.3894,
        23.4195,
        23.4497,
        23.4801,
        23.5106, 
        23.5412,
        23.572,
        23.6029,
        23.6339,
        23.6651,
        23.6964,
        23.7279, 
        23.7595,
        23.7913,
        23.8232,
        23.8552,
        23.8874,
        23.9197,
        23.9522, 
        23.9849,
        24.0176,
        24.0506,
        24.0837,
        24.1169,
        24.1503,
        24.1838, 
        24.2176,
        24.2514,
        24.2854,
        24.3196,
        24.3539,
        24.3884,
        24.4231, 
        24.4579,
        24.4929,
        24.528,
        24.5633,
        24.5988,
        24.6344,
        24.6702, 
        24.7062,
        24.7423,
        24.7786,
        24.8151,
        24.8517,
        24.8885,
        24.9255, 
        24.9627,
        25.,
        25.0748,
        25.1486,
        25.2215,
        25.2934,
        25.3643,
        25.4344, 
        25.5035,
        25.5718,
        25.6392,
        25.7057,
        25.7714,
        25.8362,
        25.9002, 
        25.9634,
        26.0257,
        26.0873,
        26.1482,
        26.2082,
        26.2676,
        26.3262, 
        26.384,
        26.4412,
        26.4977,
        26.5535,
        26.6086,
        26.6631,
        26.7169, 
        26.7702,
        26.8228,
        26.8748,
        26.9262,
        26.977,
        27.0273,
        27.0771, 
        27.1263,
        27.175,
        27.2232,
        27.2709,
        27.3181,
        27.3648,
        27.4111,
        27.457, 
        27.5024,
        27.5475,
        27.5921,
        27.6363,
        27.6802,
        27.7237,
        27.7669, 
        27.8097,
        27.8522,
        27.8944,
        27.9364,
        27.978,
        28.0194,
        28.0605, 
        28.1014,
        28.142,
        28.1825,
        28.2227,
        28.2628,
        28.3027,
        28.3424,
        28.382, 
        28.4215,
        28.4608,
        28.5001,
        28.5392,
        28.5783,
        28.6173,
        28.6562, 
        28.6951,
        28.734,
        28.7729,
        28.8118,
        28.8507,
        28.8896,
        28.9286, 
        28.9676,
        29.0067,
        29.0458,
        29.0851,
        29.1245,
        29.164,
        29.2036, 
        29.2434,
        29.2833,
        29.3234,
        29.3637,
        29.4042,
        29.445,
        29.4859, 
        29.5271,
        29.5685,
        29.6103,
        29.6523,
        29.6946,
        29.7372,
        29.7801, 
        29.8233,
        29.8669,
        29.9109,
        29.9553,
        30.,
        30.1113,
        30.22,
        30.326, 
        30.4294,
        30.5304,
        30.6289,
        30.7251,
        30.8189,
        30.9106,
        31.,
        31.0874, 
        31.1727,
        31.2561,
        31.3376,
        31.4172,
        31.4951,
        31.5713,
        31.6458, 
        31.7188,
        31.7902,
        31.8603,
        31.9289,
        31.9963,
        32.0624,
        32.1274, 
        32.1913,
        32.2541,
        32.3159,
        32.3769,
        32.437,
        32.4963,
        32.555,
        32.613, 
        32.6704,
        32.7273,
        32.7838,
        32.8399,
        32.8957,
        32.9513,
        33.0067, 
        33.062,
        33.1172,
        33.1725,
        33.2278,
        33.2834,
        33.3391,
        33.3952, 
        33.4515,
        33.5084,
        33.5657,
        33.6235,
        33.682,
        33.7412,
        33.8011, 
        33.8619,
        33.9235,
        33.9861,
        34.0498,
        34.1145,
        34.1803,
        34.2474, 
        34.3158,
        34.3855,
        34.4567,
        34.5293,
        34.6035,
        34.6793,
        34.7568, 
        34.836,
        34.9171,
        35.,
        35.0281,
        35.0633,
        35.1055,
        35.1547,
        35.2108, 
        35.2736,
        35.343,
        35.4189,
        35.5013,
        35.59,
        35.6849,
        35.7859,
        35.893, 
        36.0059,
        36.1247,
        36.2492,
        36.3793,
        36.5149,
        36.6559,
        36.8021, 
        36.9536,
        37.1102,
        37.2718,
        37.4382,
        37.6095,
        37.7854,
        37.9659, 
        38.1508,
        38.3402,
        38.5338,
        38.7316,
        38.9334,
        39.1392,
        39.3489, 
        39.5623,
        39.7794,
        40.,
        40.2909,
        40.5747,
        40.8519,
        41.1229,
        41.3882, 
        41.6482,
        41.9034,
        42.1544,
        42.4015,
        42.6452,
        42.8861,
        43.1244, 
        43.3609,
        43.5958,
        43.8297,
        44.063,
        44.2962,
        44.5298,
        44.7643,
        45., 
        45.2375,
        45.4773,
        45.7197,
        45.9654,
        46.2147,
        46.4681,
        46.7261, 
        46.9891,
        47.2576,
        47.5322,
        47.8131,
        48.1011,
        48.3963,
        48.6995, 
        49.011,
        49.3312,
        49.6608,
        50.,
        50.3701,
        50.7492,
        51.1369,
        51.5333, 
        51.9382,
        52.3515,
        52.773,
        53.2027,
        53.6403,
        54.0859,
        54.5391,
        55., 
        55.4684,
        55.9441,
        56.4271,
        56.9172,
        57.4142,
        57.9182,
        58.4289, 
        58.9461,
        59.4699,
        60.
     };
    const float REFLECTANCE_LOOKUP_RIGHT[1109] = {
         15.,
        15.0073,
        15.0146,
        15.0218,
        15.0291,
        15.0364,
        15.0436,
        15.0509, 
        15.0581,
        15.0654,
        15.0726,
        15.0799,
        15.0871,
        15.0943,
        15.1016, 
        15.1088,
        15.116,
        15.1232,
        15.1304,
        15.1376,
        15.1448,
        15.152,
        15.1592, 
        15.1664,
        15.1736,
        15.1808,
        15.188,
        15.1951,
        15.2023,
        15.2095, 
        15.2167,
        15.2238,
        15.231,
        15.2382,
        15.2453,
        15.2525,
        15.2597, 
        15.2668,
        15.274,
        15.2811,
        15.2883,
        15.2954,
        15.3026,
        15.3097, 
        15.3169,
        15.324,
        15.3311,
        15.3383,
        15.3454,
        15.3526,
        15.3597, 
        15.3669,
        15.374,
        15.3811,
        15.3883,
        15.3954,
        15.4025,
        15.4097, 
        15.4168,
        15.424,
        15.4311,
        15.4382,
        15.4454,
        15.4525,
        15.4597, 
        15.4668,
        15.4739,
        15.4811,
        15.4882,
        15.4954,
        15.5025,
        15.5097, 
        15.5168,
        15.524,
        15.5311,
        15.5383,
        15.5455,
        15.5526,
        15.5598, 
        15.5669,
        15.5741,
        15.5813,
        15.5884,
        15.5956,
        15.6028,
        15.61,
        15.6172, 
        15.6243,
        15.6315,
        15.6387,
        15.6459,
        15.6531,
        15.6603,
        15.6675, 
        15.6747,
        15.6819,
        15.6892,
        15.6964,
        15.7036,
        15.7108,
        15.7181, 
        15.7253,
        15.7325,
        15.7398,
        15.747,
        15.7543,
        15.7616,
        15.7688, 
        15.7761,
        15.7834,
        15.7907,
        15.7979,
        15.8052,
        15.8125,
        15.8198, 
        15.8271,
        15.8345,
        15.8418,
        15.8491,
        15.8564,
        15.8638,
        15.8711, 
        15.8785,
        15.8858,
        15.8932,
        15.9006,
        15.9079,
        15.9153,
        15.9227, 
        15.9301,
        15.9375,
        15.9449,
        15.9523,
        15.9598,
        15.9672,
        15.9746, 
        15.9821,
        15.9896,
        15.997,
        16.0045,
        16.012,
        16.0195,
        16.027,
        16.0345, 
        16.042,
        16.0495,
        16.0571,
        16.0646,
        16.0721,
        16.0797,
        16.0873, 
        16.0949,
        16.1024,
        16.11,
        16.1176,
        16.1253,
        16.1329,
        16.1405,
        16.1482, 
        16.1558,
        16.1635,
        16.1712,
        16.1789,
        16.1865,
        16.1943,
        16.202, 
        16.2097,
        16.2174,
        16.2252,
        16.233,
        16.2407,
        16.2485,
        16.2563, 
        16.2641,
        16.2719,
        16.2798,
        16.2876,
        16.2954,
        16.3033,
        16.3112, 
        16.3191,
        16.327,
        16.3349,
        16.3428,
        16.3508,
        16.3587,
        16.3667, 
        16.3746,
        16.3826,
        16.3906,
        16.3986,
        16.4067,
        16.4147,
        16.4228, 
        16.4308,
        16.4389,
        16.447,
        16.4551,
        16.4632,
        16.4714,
        16.4795, 
        16.4877,
        16.4959,
        16.5041,
        16.5123,
        16.5205,
        16.5287,
        16.537, 
        16.5452,
        16.5535,
        16.5618,
        16.5701,
        16.5784,
        16.5868,
        16.5951, 
        16.6035,
        16.6119,
        16.6203,
        16.6287,
        16.6372,
        16.6456,
        16.6541, 
        16.6626,
        16.6711,
        16.6796,
        16.6881,
        16.6966,
        16.7052,
        16.7138, 
        16.7224,
        16.731,
        16.7396,
        16.7483,
        16.757,
        16.7656,
        16.7743,
        16.7831, 
        16.7918,
        16.8005,
        16.8093,
        16.8181,
        16.8269,
        16.8357,
        16.8446, 
        16.8534,
        16.8623,
        16.8712,
        16.8801,
        16.8891,
        16.898,
        16.907,
        16.916, 
        16.925,
        16.934,
        16.9431,
        16.9522,
        16.9613,
        16.9704,
        16.9795,
        16.9886, 
        16.9978,
        17.007,
        17.0162,
        17.0254,
        17.0347,
        17.044,
        17.0532,
        17.0626, 
        17.0719,
        17.0812,
        17.0906,
        17.1,
        17.1094,
        17.1189,
        17.1283,
        17.1378, 
        17.1473,
        17.1568,
        17.1663,
        17.1759,
        17.1855,
        17.1951,
        17.2047, 
        17.2144,
        17.2241,
        17.2338,
        17.2435,
        17.2532,
        17.263,
        17.2728, 
        17.2826,
        17.2924,
        17.3023,
        17.3121,
        17.322,
        17.332,
        17.3419,
        17.3519, 
        17.3619,
        17.3719,
        17.3819,
        17.392,
        17.4021,
        17.4122,
        17.4223, 
        17.4325,
        17.4427,
        17.4529,
        17.4631,
        17.4734,
        17.4837,
        17.494, 
        17.5043,
        17.5147,
        17.5251,
        17.5355,
        17.5459,
        17.5564,
        17.5669, 
        17.5774,
        17.5879,
        17.5985,
        17.6091,
        17.6197,
        17.6303,
        17.641, 
        17.6517,
        17.6624,
        17.6732,
        17.6839,
        17.6947,
        17.7056,
        17.7164, 
        17.7273,
        17.7382,
        17.7491,
        17.7601,
        17.7711,
        17.7821,
        17.7932, 
        17.8042,
        17.8153,
        17.8265,
        17.8376,
        17.8488,
        17.86,
        17.8713,
        17.8825, 
        17.8938,
        17.9052,
        17.9165,
        17.9279,
        17.9393,
        17.9507,
        17.9622, 
        17.9737,
        17.9852,
        17.9968,
        18.0084,
        18.02,
        18.0316,
        18.0433,
        18.055, 
        18.0668,
        18.0785,
        18.0903,
        18.1022,
        18.114,
        18.1259,
        18.1378, 
        18.1498,
        18.1617,
        18.1738,
        18.1858,
        18.1979,
        18.21,
        18.2221,
        18.2343, 
        18.2465,
        18.2587,
        18.2709,
        18.2832,
        18.2956,
        18.3079,
        18.3203, 
        18.3327,
        18.3452,
        18.3577,
        18.3702,
        18.3827,
        18.3953,
        18.4079, 
        18.4206,
        18.4332,
        18.4459,
        18.4587,
        18.4715,
        18.4843,
        18.4971,
        18.51, 
        18.5229,
        18.5359,
        18.5488,
        18.5618,
        18.5749,
        18.588,
        18.6011, 
        18.6142,
        18.6274,
        18.6406,
        18.6539,
        18.6672,
        18.6805,
        18.6938, 
        18.7072,
        18.7207,
        18.7341,
        18.7476,
        18.7611,
        18.7747,
        18.7883, 
        18.8019,
        18.8156,
        18.8293,
        18.8431,
        18.8569,
        18.8707,
        18.8845, 
        18.8984,
        18.9123,
        18.9263,
        18.9403,
        18.9543,
        18.9684,
        18.9825, 
        18.9967,
        19.0108,
        19.0251,
        19.0393,
        19.0536,
        19.0679,
        19.0823, 
        19.0967,
        19.1112,
        19.1256,
        19.1402,
        19.1547,
        19.1693,
        19.184, 
        19.1986,
        19.2133,
        19.2281,
        19.2429,
        19.2577,
        19.2726,
        19.2875, 
        19.3024,
        19.3174,
        19.3324,
        19.3475,
        19.3626,
        19.3777,
        19.3929, 
        19.4081,
        19.4234,
        19.4387,
        19.454,
        19.4694,
        19.4848,
        19.5003, 
        19.5158,
        19.5313,
        19.5469,
        19.5625,
        19.5782,
        19.5939,
        19.6096, 
        19.6254,
        19.6412,
        19.6571,
        19.673,
        19.689,
        19.7049,
        19.721,
        19.7371, 
        19.7532,
        19.7693,
        19.7855,
        19.8018,
        19.8181,
        19.8344,
        19.8508, 
        19.8672,
        19.8836,
        19.9001,
        19.9167,
        19.9332,
        19.9499,
        19.9665, 
        19.9832,
        20.,
        20.0194,
        20.0388,
        20.0581,
        20.0775,
        20.0969,
        20.1163, 
        20.1358,
        20.1552,
        20.1746,
        20.1941,
        20.2135,
        20.233,
        20.2524, 
        20.2719,
        20.2914,
        20.3109,
        20.3304,
        20.3499,
        20.3695,
        20.389,
        20.4086,
        20.4281,
        20.4477,
        20.4673,
        20.4869,
        20.5065,
        20.5262,
        20.5458, 
        20.5655,
        20.5852,
        20.6048,
        20.6246,
        20.6443,
        20.664,
        20.6838, 
        20.7035,
        20.7233,
        20.7431,
        20.7629,
        20.7828,
        20.8026,
        20.8225, 
        20.8424,
        20.8623,
        20.8822,
        20.9021,
        20.9221,
        20.9421,
        20.9621, 
        20.9821,
        21.0022,
        21.0222,
        21.0423,
        21.0624,
        21.0825,
        21.1027, 
        21.1229,
        21.1431,
        21.1633,
        21.1835,
        21.2038,
        21.2241,
        21.2444, 
        21.2647,
        21.2851,
        21.3055,
        21.3259,
        21.3463,
        21.3668,
        21.3872, 
        21.4078,
        21.4283,
        21.4489,
        21.4694,
        21.4901,
        21.5107,
        21.5314, 
        21.5521,
        21.5728,
        21.5936,
        21.6144,
        21.6352,
        21.656,
        21.6769, 
        21.6978,
        21.7187,
        21.7397,
        21.7607,
        21.7817,
        21.8028,
        21.8239, 
        21.845,
        21.8662,
        21.8874,
        21.9086,
        21.9299,
        21.9511,
        21.9725, 
        21.9938,
        22.0152,
        22.0367,
        22.0581,
        22.0796,
        22.1011,
        22.1227, 
        22.1443,
        22.166,
        22.1876,
        22.2094,
        22.2311,
        22.2529,
        22.2747, 
        22.2966,
        22.3185,
        22.3404,
        22.3624,
        22.3844,
        22.4065,
        22.4286, 
        22.4508,
        22.4729,
        22.4952,
        22.5174,
        22.5397,
        22.5621,
        22.5845, 
        22.6069,
        22.6294,
        22.6519,
        22.6744,
        22.697,
        22.7197,
        22.7424, 
        22.7651,
        22.7879,
        22.8107,
        22.8336,
        22.8565,
        22.8795,
        22.9025, 
        22.9255,
        22.9486,
        22.9717,
        22.9949,
        23.0182,
        23.0415,
        23.0648, 
        23.0882,
        23.1116,
        23.1351,
        23.1586,
        23.1822,
        23.2058,
        23.2295, 
        23.2532,
        23.277,
        23.3008,
        23.3247,
        23.3486,
        23.3726,
        23.3967, 
        23.4207,
        23.4449,
        23.4691,
        23.4933,
        23.5176,
        23.542,
        23.5664, 
        23.5908,
        23.6153,
        23.6399,
        23.6645,
        23.6892,
        23.7139,
        23.7387, 
        23.7636,
        23.7885,
        23.8134,
        23.8385,
        23.8635,
        23.8887,
        23.9139, 
        23.9391,
        23.9644,
        23.9898,
        24.0152,
        24.0407,
        24.0662,
        24.0918, 
        24.1175,
        24.1432,
        24.169,
        24.1948,
        24.2207,
        24.2467,
        24.2727, 
        24.2988,
        24.325,
        24.3512,
        24.3775,
        24.4038,
        24.4302,
        24.4567, 
        24.4833,
        24.5099,
        24.5365,
        24.5632,
        24.59,
        24.6169,
        24.6438,
        24.6708, 
        24.6979,
        24.725,
        24.7522,
        24.7795,
        24.8068,
        24.8342,
        24.8616, 
        24.8892,
        24.9168,
        24.9445,
        24.9722,
        25.,
        25.0771,
        25.1531,
        25.2282, 
        25.3023,
        25.3754,
        25.4476,
        25.5188,
        25.5891,
        25.6585,
        25.7269, 
        25.7944,
        25.861,
        25.9267,
        25.9915,
        26.0554,
        26.1184,
        26.1806, 
        26.2419,
        26.3024,
        26.362,
        26.4208,
        26.4787,
        26.5359,
        26.5922, 
        26.6478,
        26.7025,
        26.7565,
        26.8096,
        26.862,
        26.9137,
        26.9646, 
        27.0148,
        27.0642,
        27.1129,
        27.1609,
        27.2082,
        27.2547,
        27.3006, 
        27.3458,
        27.3903,
        27.4342,
        27.4774,
        27.5199,
        27.5618,
        27.6031, 
        27.6437,
        27.6838,
        27.7232,
        27.762,
        27.8002,
        27.8379,
        27.8749, 
        27.9114,
        27.9473,
        27.9827,
        28.0176,
        28.0519,
        28.0857,
        28.1189, 
        28.1517,
        28.1839,
        28.2157,
        28.247,
        28.2778,
        28.3081,
        28.338,
        28.3674, 
        28.3964,
        28.425,
        28.4531,
        28.4808,
        28.5081,
        28.535,
        28.5615,
        28.5876, 
        28.6134,
        28.6388,
        28.6638,
        28.6885,
        28.7128,
        28.7368,
        28.7605, 
        28.7838,
        28.8069,
        28.8296,
        28.852,
        28.8742,
        28.8961,
        28.9177, 
        28.9391,
        28.9602,
        28.9811,
        29.0017,
        29.0221,
        29.0423,
        29.0623, 
        29.0821,
        29.1017,
        29.1211,
        29.1403,
        29.1594,
        29.1783,
        29.1971, 
        29.2157,
        29.2342,
        29.2525,
        29.2708,
        29.2889,
        29.3069,
        29.3249, 
        29.3427,
        29.3605,
        29.3782,
        29.3959,
        29.4135,
        29.431,
        29.4485,
        29.466,
        29.4835,
        29.501,
        29.5185,
        29.536,
        29.5535,
        29.571,
        29.5885, 
        29.6061,
        29.6238,
        29.6415,
        29.6593,
        29.6771,
        29.695,
        29.7131, 
        29.7312,
        29.7494,
        29.7678,
        29.7862,
        29.8048,
        29.8236,
        29.8425, 
        29.8615,
        29.8807,
        29.9001,
        29.9197,
        29.9395,
        29.9594,
        29.9796,
        30., 
        29.9805,
        29.9626,
        29.9462,
        29.9313,
        29.9179,
        29.9061,
        29.8958, 
        29.8869,
        29.8796,
        29.8737,
        29.8694,
        29.8665,
        29.865,
        29.865,
        29.8665, 
        29.8694,
        29.8737,
        29.8795,
        29.8867,
        29.8953,
        29.9053,
        29.9167, 
        29.9295,
        29.9436,
        29.9592,
        29.9761,
        29.9943,
        30.014,
        30.0349, 
        30.0572,
        30.0809,
        30.1058,
        30.1321,
        30.1597,
        30.1885,
        30.2187, 
        30.2502,
        30.2829,
        30.3169,
        30.3522,
        30.3887,
        30.4265,
        30.4655, 
        30.5057,
        30.5472,
        30.5899,
        30.6338,
        30.6789,
        30.7252,
        30.7727, 
        30.8214,
        30.8712,
        30.9223,
        30.9744,
        31.0278,
        31.0822,
        31.1379, 
        31.1946,
        31.2525,
        31.3115,
        31.3715,
        31.4327,
        31.495,
        31.5584, 
        31.6228,
        31.6884,
        31.7549,
        31.8226,
        31.8913,
        31.961,
        32.0318, 
        32.1035,
        32.1763,
        32.2502,
        32.325,
        32.4008,
        32.4776,
        32.5554, 
        32.6342,
        32.7139,
        32.7946,
        32.8763,
        32.9588,
        33.0424,
        33.1268, 
        33.2122,
        33.2985,
        33.3857,
        33.4738,
        33.5628,
        33.6527,
        33.7435, 
        33.8351,
        33.9276,
        34.021,
        34.1152,
        34.2102,
        34.3061,
        34.4028, 
        34.5003,
        34.5987,
        34.6978,
        34.7978,
        34.8985,
        35.,
        35.1429,
        35.2837, 
        35.4224,
        35.559,
        35.6937,
        35.8264,
        35.9573,
        36.0864,
        36.2138, 
        36.3396,
        36.4638,
        36.5865,
        36.7077,
        36.8275,
        36.9461,
        37.0634, 
        37.1795,
        37.2945,
        37.4084,
        37.5214,
        37.6334,
        37.7446,
        37.855, 
        37.9647,
        38.0737,
        38.1821,
        38.2901,
        38.3975,
        38.5046,
        38.6114, 
        38.7179,
        38.8242,
        38.9304,
        39.0365,
        39.1426,
        39.2489,
        39.3552, 
        39.4618,
        39.5686,
        39.6758,
        39.7834,
        39.8914,
        40.,
        40.1334,
        40.2653, 
        40.3958,
        40.5252,
        40.6535,
        40.7808,
        40.9074,
        41.0333,
        41.1587, 
        41.2836,
        41.4083,
        41.5329,
        41.6575,
        41.7823,
        41.9073,
        42.0327, 
        42.1587,
        42.2854,
        42.4128,
        42.5413,
        42.6708,
        42.8015,
        42.9336, 
        43.0671,
        43.2023,
        43.3393,
        43.4781,
        43.619,
        43.762,
        43.9073,
        44.055, 
        44.2053,
        44.3583,
        44.5142,
        44.673,
        44.8349,
        45.,
        45.1034,
        45.2196, 
        45.3482,
        45.4889,
        45.6414,
        45.8052,
        45.9801,
        46.1658,
        46.3617, 
        46.5677,
        46.7834,
        47.0084,
        47.2423,
        47.485,
        47.7358,
        47.9947, 
        48.2611,
        48.5348,
        48.8154,
        49.1026,
        49.396,
        49.6952,
        50.,
        50.31, 
        50.6248,
        50.944,
        51.2675,
        51.5947,
        51.9254,
        52.2592,
        52.5957, 
        52.9347,
        53.2758,
        53.6185,
        53.9627,
        54.3079,
        54.6538,
        55.,
        55.3462, 
        55.6921,
        56.0373,
        56.3815,
        56.7242,
        57.0653,
        57.4043,
        57.7408, 
        58.0746,
        58.4053,
        58.7325,
        59.056,
        59.3752,
        59.69,
        60.
     };
    const float REFLECTANCE_LOOKUP_FRONT[826] = {
         15.,
        15.03,
        15.0598,
        15.0894,
        15.1189,
        15.1482,
        15.1773,
        15.2063, 
        15.2352,
        15.2638,
        15.2923,
        15.3207,
        15.3489,
        15.3769,
        15.4048, 
        15.4325,
        15.4601,
        15.4875,
        15.5148,
        15.5419,
        15.5688,
        15.5956, 
        15.6223,
        15.6488,
        15.6751,
        15.7013,
        15.7274,
        15.7533,
        15.779, 
        15.8047,
        15.8301,
        15.8554,
        15.8806,
        15.9056,
        15.9305,
        15.9552, 
        15.9798,
        16.0043,
        16.0286,
        16.0527,
        16.0768,
        16.1006,
        16.1244, 
        16.148,
        16.1715,
        16.1948,
        16.218,
        16.241,
        16.264,
        16.2867,
        16.3094, 
        16.3319,
        16.3543,
        16.3765,
        16.3987,
        16.4206,
        16.4425,
        16.4642, 
        16.4858,
        16.5073,
        16.5286,
        16.5498,
        16.5709,
        16.5918,
        16.6127, 
        16.6334,
        16.654,
        16.6744,
        16.6947,
        16.7149,
        16.735,
        16.755,
        16.7748, 
        16.7945,
        16.8141,
        16.8336,
        16.853,
        16.8722,
        16.8913,
        16.9103, 
        16.9292,
        16.948,
        16.9666,
        16.9852,
        17.0036,
        17.0219,
        17.0401, 
        17.0582,
        17.0762,
        17.0941,
        17.1118,
        17.1295,
        17.147,
        17.1644, 
        17.1817,
        17.1989,
        17.216,
        17.233,
        17.2499,
        17.2667,
        17.2834,
        17.3, 
        17.3165,
        17.3328,
        17.3491,
        17.3653,
        17.3813,
        17.3973,
        17.4132, 
        17.4289,
        17.4446,
        17.4602,
        17.4757,
        17.491,
        17.5063,
        17.5215, 
        17.5366,
        17.5516,
        17.5665,
        17.5813,
        17.596,
        17.6107,
        17.6252, 
        17.6396,
        17.654,
        17.6683,
        17.6824,
        17.6965,
        17.7105,
        17.7244, 
        17.7383,
        17.752,
        17.7657,
        17.7792,
        17.7927,
        17.8061,
        17.8194, 
        17.8327,
        17.8458,
        17.8589,
        17.8719,
        17.8848,
        17.8977,
        17.9104, 
        17.9231,
        17.9357,
        17.9482,
        17.9607,
        17.9731,
        17.9854,
        17.9976, 
        18.0097,
        18.0218,
        18.0338,
        18.0458,
        18.0576,
        18.0694,
        18.0811, 
        18.0928,
        18.1044,
        18.1159,
        18.1273,
        18.1387,
        18.15,
        18.1613,
        18.1725, 
        18.1836,
        18.1946,
        18.2056,
        18.2166,
        18.2274,
        18.2382,
        18.249, 
        18.2597,
        18.2703,
        18.2809,
        18.2914,
        18.3018,
        18.3122,
        18.3225, 
        18.3328,
        18.343,
        18.3532,
        18.3633,
        18.3734,
        18.3834,
        18.3933, 
        18.4032,
        18.4131,
        18.4229,
        18.4326,
        18.4423,
        18.452,
        18.4616, 
        18.4711,
        18.4806,
        18.4901,
        18.4995,
        18.5089,
        18.5182,
        18.5275, 
        18.5367,
        18.5459,
        18.5551,
        18.5642,
        18.5733,
        18.5823,
        18.5913, 
        18.6002,
        18.6091,
        18.618,
        18.6268,
        18.6356,
        18.6444,
        18.6531, 
        18.6618,
        18.6705,
        18.6791,
        18.6877,
        18.6962,
        18.7048,
        18.7133, 
        18.7217,
        18.7302,
        18.7386,
        18.7469,
        18.7553,
        18.7636,
        18.7719, 
        18.7802,
        18.7884,
        18.7966,
        18.8048,
        18.813,
        18.8211,
        18.8292, 
        18.8373,
        18.8454,
        18.8534,
        18.8615,
        18.8695,
        18.8775,
        18.8855, 
        18.8934,
        18.9014,
        18.9093,
        18.9172,
        18.9251,
        18.9329,
        18.9408, 
        18.9487,
        18.9565,
        18.9643,
        18.9721,
        18.9799,
        18.9877,
        18.9955, 
        19.0032,
        19.011,
        19.0188,
        19.0265,
        19.0342,
        19.042,
        19.0497,
        19.0574, 
        19.0651,
        19.0728,
        19.0805,
        19.0882,
        19.0959,
        19.1036,
        19.1113, 
        19.119,
        19.1267,
        19.1344,
        19.1421,
        19.1498,
        19.1575,
        19.1652, 
        19.1729,
        19.1806,
        19.1883,
        19.196,
        19.2038,
        19.2115,
        19.2192,
        19.227, 
        19.2347,
        19.2425,
        19.2503,
        19.2581,
        19.2659,
        19.2737,
        19.2815, 
        19.2893,
        19.2972,
        19.305,
        19.3129,
        19.3208,
        19.3287,
        19.3366, 
        19.3446,
        19.3525,
        19.3605,
        19.3685,
        19.3765,
        19.3846,
        19.3926, 
        19.4007,
        19.4088,
        19.4169,
        19.4251,
        19.4332,
        19.4414,
        19.4496, 
        19.4579,
        19.4661,
        19.4744,
        19.4827,
        19.4911,
        19.4995,
        19.5079, 
        19.5163,
        19.5248,
        19.5333,
        19.5418,
        19.5504,
        19.559,
        19.5676, 
        19.5762,
        19.5849,
        19.5937,
        19.6024,
        19.6112,
        19.6201,
        19.629, 
        19.6379,
        19.6468,
        19.6558,
        19.6648,
        19.6739,
        19.683,
        19.6922, 
        19.7014,
        19.7106,
        19.7199,
        19.7292,
        19.7386,
        19.748,
        19.7575,
        19.767, 
        19.7766,
        19.7862,
        19.7958,
        19.8055,
        19.8153,
        19.8251,
        19.8349, 
        19.8448,
        19.8548,
        19.8648,
        19.8749,
        19.885,
        19.8952,
        19.9054, 
        19.9157,
        19.926,
        19.9364,
        19.9469,
        19.9574,
        19.9679,
        19.9786, 
        19.9893,
        20.,
        20.0919,
        20.1827,
        20.2723,
        20.3607,
        20.4479,
        20.5341, 
        20.619,
        20.7029,
        20.7856,
        20.8672,
        20.9478,
        21.0272,
        21.1055, 
        21.1827,
        21.2588,
        21.3339,
        21.4079,
        21.4809,
        21.5528,
        21.6237, 
        21.6935,
        21.7623,
        21.8301,
        21.8969,
        21.9626,
        22.0274,
        22.0912, 
        22.154,
        22.2158,
        22.2767,
        22.3366,
        22.3956,
        22.4536,
        22.5107, 
        22.5668,
        22.622,
        22.6763,
        22.7297,
        22.7822,
        22.8339,
        22.8846, 
        22.9344,
        22.9834,
        23.0315,
        23.0788,
        23.1252,
        23.1708,
        23.2155, 
        23.2595,
        23.3026,
        23.3449,
        23.3863,
        23.427,
        23.467,
        23.5061,
        23.5444, 
        23.582,
        23.6189,
        23.655,
        23.6903,
        23.7249,
        23.7588,
        23.7919,
        23.8244, 
        23.8561,
        23.8872,
        23.9175,
        23.9472,
        23.9762,
        24.0045,
        24.0322, 
        24.0592,
        24.0856,
        24.1113,
        24.1364,
        24.1609,
        24.1847,
        24.208, 
        24.2307,
        24.2527,
        24.2742,
        24.2951,
        24.3154,
        24.3352,
        24.3544, 
        24.373,
        24.3911,
        24.4087,
        24.4258,
        24.4423,
        24.4584,
        24.4739, 
        24.4889,
        24.5034,
        24.5175,
        24.5311,
        24.5442,
        24.5569,
        24.5691, 
        24.5808,
        24.5921,
        24.603,
        24.6135,
        24.6236,
        24.6332,
        24.6425, 
        24.6514,
        24.6598,
        24.6679,
        24.6757,
        24.683,
        24.6901,
        24.6967, 
        24.7031,
        24.7091,
        24.7147,
        24.7201,
        24.7251,
        24.7299,
        24.7343, 
        24.7385,
        24.7424,
        24.746,
        24.7493,
        24.7524,
        24.7553,
        24.7579, 
        24.7602,
        24.7624,
        24.7643,
        24.766,
        24.7675,
        24.7688,
        24.7699, 
        24.7708,
        24.7716,
        24.7722,
        24.7726,
        24.7729,
        24.773,
        24.773,
        24.7728, 
        24.7726,
        24.7722,
        24.7717,
        24.7711,
        24.7704,
        24.7697,
        24.7688, 
        24.7679,
        24.7669,
        24.7659,
        24.7648,
        24.7637,
        24.7625,
        24.7613, 
        24.7601,
        24.7589,
        24.7577,
        24.7565,
        24.7553,
        24.7541,
        24.7529, 
        24.7518,
        24.7507,
        24.7497,
        24.7487,
        24.7478,
        24.747,
        24.7462, 
        24.7455,
        24.745,
        24.7445,
        24.7441,
        24.7438,
        24.7437,
        24.7437, 
        24.7438,
        24.7441,
        24.7445,
        24.7451,
        24.7459,
        24.7468,
        24.748, 
        24.7493,
        24.7508,
        24.7525,
        24.7544,
        24.7566,
        24.759,
        24.7616, 
        24.7644,
        24.7675,
        24.7709,
        24.7745,
        24.7784,
        24.7826,
        24.7871, 
        24.7918,
        24.7969,
        24.8023,
        24.808,
        24.814,
        24.8203,
        24.827,
        24.8341, 
        24.8415,
        24.8492,
        24.8573,
        24.8658,
        24.8747,
        24.884,
        24.8937, 
        24.9038,
        24.9143,
        24.9252,
        24.9365,
        24.9483,
        24.9606,
        24.9732, 
        24.9864,
        25.,
        24.956,
        24.9145,
        24.8755,
        24.8389,
        24.8047,
        24.7729, 
        24.7436,
        24.7166,
        24.6919,
        24.6696,
        24.6497,
        24.632,
        24.6166, 
        24.6035,
        24.5926,
        24.584,
        24.5776,
        24.5734,
        24.5713,
        24.5714, 
        24.5737,
        24.5781,
        24.5846,
        24.5931,
        24.6038,
        24.6165,
        24.6312, 
        24.648,
        24.6668,
        24.6875,
        24.7102,
        24.7349,
        24.7614,
        24.7899, 
        24.8203,
        24.8526,
        24.8867,
        24.9226,
        24.9604,
        25.,
        25.0414,
        25.0845, 
        25.1294,
        25.176,
        25.2243,
        25.2744,
        25.3261,
        25.3794,
        25.4344, 
        25.4911,
        25.5493,
        25.6091,
        25.6705,
        25.7335,
        25.798,
        25.864,
        25.9315, 
        26.0005,
        26.071,
        26.1429,
        26.2162,
        26.2909,
        26.3671,
        26.4446, 
        26.5234,
        26.6036,
        26.6852,
        26.768,
        26.8521,
        26.9375,
        27.0241,
        27.112, 
        27.2011,
        27.2914,
        27.3828,
        27.4754,
        27.5692,
        27.6641,
        27.7601, 
        27.8571,
        27.9553,
        28.0545,
        28.1547,
        28.256,
        28.3583,
        28.4615, 
        28.5657,
        28.6709,
        28.7769,
        28.8839,
        28.9918,
        29.1006,
        29.2102, 
        29.3206,
        29.4319,
        29.544,
        29.6569,
        29.7705,
        29.8849,
        30.,
        30.1892, 
        30.3735,
        30.5531,
        30.728,
        30.8984,
        31.0645,
        31.2263,
        31.384,
        31.5377, 
        31.6875,
        31.8336,
        31.976,
        32.1149,
        32.2505,
        32.3828,
        32.512,
        32.6382, 
        32.7615,
        32.8821,
        33.,
        33.1154,
        33.2285,
        33.3393,
        33.448,
        33.5547, 
        33.6595,
        33.7626,
        33.864,
        33.9639,
        34.0625,
        34.1598,
        34.256,
        34.3512, 
        34.4455,
        34.5391,
        34.632,
        34.7244,
        34.8165,
        34.9083,
        35.,
        35.1436, 
        35.283,
        35.4184,
        35.55,
        35.6782,
        35.8031,
        35.9251,
        36.0444,
        36.1613, 
        36.276,
        36.3888,
        36.5,
        36.6098,
        36.7184,
        36.8262,
        36.9333,
        37.0401, 
        37.1469,
        37.2538,
        37.3611,
        37.4691,
        37.5781,
        37.6883,
        37.8,
        37.9134, 
        38.0288,
        38.1465,
        38.2667,
        38.3896,
        38.5156,
        38.6449,
        38.7778, 
        38.9145,
        39.0552,
        39.2003,
        39.35,
        39.5046,
        39.6642,
        39.8293,
        40., 
        40.0813,
        40.1847,
        40.3093,
        40.4545,
        40.6197,
        40.804,
        41.0067, 
        41.2273,
        41.4648,
        41.7188,
        41.9883,
        42.2727,
        42.5714,
        42.8835, 
        43.2085,
        43.5455,
        43.8938,
        44.2528,
        44.6218,
        45.,
        45.6119,
        46.1728, 
        46.6875,
        47.1605,
        47.5965,
        48.,
        48.3758,
        48.7284,
        49.0625,
        49.3827, 
        49.6937,
        50.,
        50.3063,
        50.6173,
        50.9375,
        51.2716,
        51.6242,
        52., 
        52.4035,
        52.8395,
        53.3125,
        53.8272,
        54.3881,
        55.,
        55.6674,
        56.3951, 
        57.1875,
        58.0494,
        58.9853,
        60.
     };
    
    
    // lookup table for 27-2113mm
    const float DISTANCE_LOOKUP[2087] = {
        300.,
        299.266,
        298.54,
        297.824,
        297.117,
        296.418,
        295.729,
        295.048, 
        294.375,
        293.711,
        293.055,
        292.407,
        291.768,
        291.136,
        290.512, 
        289.896,
        289.288,
        288.687,
        288.093,
        287.507,
        286.928,
        286.355, 
        285.79,
        285.232,
        284.68,
        284.135,
        283.597,
        283.065,
        282.539,
        282.019, 
        281.506,
        280.998,
        280.496,
        280.,
        279.509,
        279.024,
        278.545,
        278.07, 
        277.601,
        277.137,
        276.677,
        276.223,
        275.773,
        275.328,
        274.887, 
        274.451,
        274.019,
        273.591,
        273.167,
        272.747,
        272.331,
        271.918, 
        271.509,
        271.104,
        270.702,
        270.303,
        269.907,
        269.515,
        269.125, 
        268.738,
        268.354,
        267.972,
        267.593,
        267.216,
        266.841,
        266.469, 
        266.098,
        265.73,
        265.363,
        264.998,
        264.634,
        264.272,
        263.912, 
        263.552,
        263.194,
        262.836,
        262.48,
        262.124,
        261.769,
        261.415, 
        261.061,
        260.707,
        260.353,
        260.,
        259.585,
        259.17,
        258.756,
        258.341, 
        257.927,
        257.512,
        257.098,
        256.685,
        256.271,
        255.858,
        255.445, 
        255.033,
        254.621,
        254.209,
        253.798,
        253.387,
        252.977,
        252.568, 
        252.159,
        251.751,
        251.344,
        250.937,
        250.532,
        250.127,
        249.722, 
        249.319,
        248.917,
        248.515,
        248.115,
        247.716,
        247.317,
        246.92, 
        246.524,
        246.129,
        245.736,
        245.343,
        244.952,
        244.562,
        244.174, 
        243.787,
        243.401,
        243.017,
        242.634,
        242.253,
        241.873,
        241.495, 
        241.119,
        240.744,
        240.371,
        240.,
        239.667,
        239.336,
        239.008,
        238.682, 
        238.358,
        238.035,
        237.716,
        237.398,
        237.082,
        236.768,
        236.456, 
        236.146,
        235.838,
        235.532,
        235.228,
        234.926,
        234.625,
        234.327, 
        234.03,
        233.735,
        233.442,
        233.15,
        232.86,
        232.572,
        232.286,
        232.001, 
        231.718,
        231.436,
        231.156,
        230.877,
        230.6,
        230.324,
        230.05,
        229.778, 
        229.506,
        229.236,
        228.968,
        228.701,
        228.435,
        228.17,
        227.907, 
        227.644,
        227.384,
        227.124,
        226.865,
        226.608,
        226.351,
        226.096, 
        225.842,
        225.589,
        225.337,
        225.086,
        224.836,
        224.587,
        224.338, 
        224.091,
        223.845,
        223.599,
        223.354,
        223.11,
        222.867,
        222.624, 
        222.383,
        222.142,
        221.901,
        221.662,
        221.423,
        221.184,
        220.946, 
        220.709,
        220.472,
        220.236,
        220.,
        219.745,
        219.491,
        219.237,
        218.984, 
        218.73,
        218.478,
        218.225,
        217.973,
        217.722,
        217.47,
        217.219,
        216.969, 
        216.718,
        216.468,
        216.219,
        215.97,
        215.721,
        215.472,
        215.224, 
        214.976,
        214.728,
        214.481,
        214.234,
        213.987,
        213.74,
        213.494, 
        213.248,
        213.002,
        212.757,
        212.512,
        212.267,
        212.022,
        211.778, 
        211.534,
        211.29,
        211.046,
        210.803,
        210.559,
        210.316,
        210.073, 
        209.831,
        209.588,
        209.346,
        209.104,
        208.862,
        208.621,
        208.379, 
        208.138,
        207.897,
        207.656,
        207.415,
        207.174,
        206.934,
        206.693, 
        206.453,
        206.213,
        205.973,
        205.733,
        205.493,
        205.253,
        205.014, 
        204.775,
        204.535,
        204.296,
        204.057,
        203.818,
        203.579,
        203.34, 
        203.101,
        202.862,
        202.623,
        202.385,
        202.146,
        201.908,
        201.669, 
        201.431,
        201.192,
        200.954,
        200.715,
        200.477,
        200.238,
        200.,
        199.75, 
        199.499,
        199.249,
        198.999,
        198.749,
        198.499,
        198.248,
        197.998, 
        197.748,
        197.498,
        197.248,
        196.998,
        196.749,
        196.499,
        196.249,
        196., 
        195.75,
        195.501,
        195.251,
        195.002,
        194.753,
        194.504,
        194.255, 
        194.007,
        193.758,
        193.51,
        193.261,
        193.013,
        192.765,
        192.518,
        192.27, 
        192.023,
        191.775,
        191.528,
        191.281,
        191.035,
        190.788,
        190.542, 
        190.296,
        190.05,
        189.804,
        189.559,
        189.314,
        189.069,
        188.824,
        188.58, 
        188.336,
        188.092,
        187.848,
        187.605,
        187.362,
        187.119,
        186.877, 
        186.635,
        186.393,
        186.151,
        185.91,
        185.669,
        185.429,
        185.189, 
        184.949,
        184.709,
        184.47,
        184.231,
        183.993,
        183.755,
        183.517,
        183.28, 
        183.043,
        182.806,
        182.57,
        182.334,
        182.099,
        181.864,
        181.629, 
        181.395,
        181.162,
        180.928,
        180.696,
        180.463,
        180.231,
        180.,
        179.786, 
        179.572,
        179.358,
        179.145,
        178.933,
        178.721,
        178.51,
        178.299, 
        178.089,
        177.879,
        177.67,
        177.461,
        177.252,
        177.044,
        176.837,
        176.63, 
        176.423,
        176.217,
        176.011,
        175.806,
        175.601,
        175.396,
        175.192, 
        174.988,
        174.785,
        174.582,
        174.38,
        174.177,
        173.976,
        173.774, 
        173.573,
        173.372,
        173.172,
        172.972,
        172.772,
        172.573,
        172.373, 
        172.175,
        171.976,
        171.778,
        171.58,
        171.382,
        171.185,
        170.988, 
        170.791,
        170.594,
        170.398,
        170.202,
        170.006,
        169.811,
        169.615, 
        169.42,
        169.225,
        169.031,
        168.836,
        168.642,
        168.448,
        168.254,
        168.06, 
        167.866,
        167.673,
        167.48,
        167.286,
        167.094,
        166.901,
        166.708, 
        166.515,
        166.323,
        166.131,
        165.938,
        165.746,
        165.554,
        165.362, 
        165.171,
        164.979,
        164.787,
        164.596,
        164.404,
        164.212,
        164.021, 
        163.83,
        163.638,
        163.447,
        163.255,
        163.064,
        162.873,
        162.682,
        162.49, 
        162.299,
        162.108,
        161.916,
        161.725,
        161.533,
        161.342,
        161.15, 
        160.959,
        160.767,
        160.576,
        160.384,
        160.192,
        160.,
        159.792,
        159.583, 
        159.374,
        159.166,
        158.957,
        158.748,
        158.539,
        158.33,
        158.122, 
        157.913,
        157.704,
        157.495,
        157.285,
        157.076,
        156.867,
        156.658, 
        156.449,
        156.24,
        156.03,
        155.821,
        155.612,
        155.403,
        155.194,
        154.984, 
        154.775,
        154.566,
        154.357,
        154.148,
        153.939,
        153.73,
        153.521, 
        153.312,
        153.103,
        152.894,
        152.685,
        152.476,
        152.268,
        152.059, 
        151.851,
        151.642,
        151.434,
        151.225,
        151.017,
        150.809,
        150.601, 
        150.393,
        150.185,
        149.977,
        149.769,
        149.562,
        149.354,
        149.147, 
        148.94,
        148.733,
        148.526,
        148.319,
        148.112,
        147.906,
        147.699, 
        147.493,
        147.287,
        147.081,
        146.875,
        146.669,
        146.464,
        146.259, 
        146.054,
        145.849,
        145.644,
        145.439,
        145.235,
        145.031,
        144.827, 
        144.623,
        144.419,
        144.216,
        144.013,
        143.81,
        143.607,
        143.405, 
        143.202,
        143.,
        142.798,
        142.597,
        142.396,
        142.194,
        141.994,
        141.793, 
        141.593,
        141.393,
        141.193,
        140.993,
        140.794,
        140.595,
        140.397, 
        140.198,
        140.,
        139.677,
        139.359,
        139.044,
        138.733,
        138.426,
        138.122, 
        137.823,
        137.527,
        137.235,
        136.947,
        136.662,
        136.381,
        136.104, 
        135.83,
        135.559,
        135.292,
        135.029,
        134.769,
        134.512,
        134.258, 
        134.008,
        133.761,
        133.518,
        133.277,
        133.04,
        132.805,
        132.574, 
        132.346,
        132.121,
        131.899,
        131.68,
        131.463,
        131.25,
        131.039,
        130.831, 
        130.626,
        130.424,
        130.224,
        130.027,
        129.833,
        129.641,
        129.452, 
        129.265,
        129.08,
        128.899,
        128.719,
        128.542,
        128.367,
        128.195, 
        128.024,
        127.856,
        127.691,
        127.527,
        127.365,
        127.206,
        127.048, 
        126.893,
        126.74,
        126.588,
        126.438,
        126.291,
        126.145,
        126.001, 
        125.858,
        125.718,
        125.579,
        125.442,
        125.306,
        125.172,
        125.039, 
        124.908,
        124.779,
        124.651,
        124.524,
        124.399,
        124.275,
        124.152, 
        124.03,
        123.91,
        123.791,
        123.673,
        123.557,
        123.441,
        123.326,
        123.213, 
        123.1,
        122.988,
        122.878,
        122.768,
        122.659,
        122.55,
        122.443,
        122.336, 
        122.23,
        122.125,
        122.02,
        121.916,
        121.812,
        121.709,
        121.606,
        121.504, 
        121.402,
        121.301,
        121.2,
        121.099,
        120.998,
        120.898,
        120.798,
        120.698, 
        120.598,
        120.499,
        120.399,
        120.299,
        120.2,
        120.1,
        120.,
        120.061, 
        120.112,
        120.154,
        120.188,
        120.212,
        120.228,
        120.235,
        120.234, 
        120.224,
        120.207,
        120.182,
        120.149,
        120.108,
        120.061,
        120.006, 
        119.943,
        119.874,
        119.799,
        119.716,
        119.627,
        119.532,
        119.431, 
        119.324,
        119.211,
        119.093,
        118.969,
        118.84,
        118.705,
        118.566, 
        118.422,
        118.273,
        118.119,
        117.962,
        117.8,
        117.634,
        117.464,
        117.291, 
        117.114,
        116.934,
        116.75,
        116.564,
        116.374,
        116.182,
        115.987,
        115.79, 
        115.591,
        115.389,
        115.186,
        114.981,
        114.774,
        114.566,
        114.356, 
        114.145,
        113.934,
        113.721,
        113.508,
        113.295,
        113.081,
        112.867, 
        112.653,
        112.439,
        112.225,
        112.012,
        111.8,
        111.588,
        111.378,
        111.168, 
        110.96,
        110.753,
        110.548,
        110.345,
        110.143,
        109.944,
        109.746, 
        109.552,
        109.36,
        109.17,
        108.984,
        108.8,
        108.641,
        108.486,
        108.336, 
        108.19,
        108.048,
        107.91,
        107.776,
        107.647,
        107.521,
        107.398,
        107.28, 
        107.164,
        107.052,
        106.944,
        106.838,
        106.736,
        106.637,
        106.54, 
        106.446,
        106.355,
        106.267,
        106.181,
        106.097,
        106.016,
        105.936, 
        105.859,
        105.784,
        105.71,
        105.639,
        105.569,
        105.5,
        105.424,
        105.349, 
        105.275,
        105.202,
        105.13,
        105.059,
        104.988,
        104.919,
        104.85,
        104.782, 
        104.714,
        104.647,
        104.58,
        104.514,
        104.448,
        104.382,
        104.316, 
        104.251,
        104.185,
        104.12,
        104.054,
        103.988,
        103.922,
        103.856, 
        103.789,
        103.722,
        103.654,
        103.586,
        103.517,
        103.448,
        103.377, 
        103.306,
        103.234,
        103.161,
        103.087,
        103.012,
        102.935,
        102.858, 
        102.779,
        102.699,
        102.617,
        102.534,
        102.449,
        102.363,
        102.275, 
        102.185,
        102.094,
        102.,
        101.86,
        101.72,
        101.58,
        101.441,
        101.301, 
        101.162,
        101.023,
        100.884,
        100.745,
        100.606,
        100.468,
        100.33, 
        100.192,
        100.055,
        99.9183,
        99.7818,
        99.6457,
        99.5101,
        99.375, 
        99.2404,
        99.1063,
        98.9727,
        98.8398,
        98.7074,
        98.5757,
        98.4446, 
        98.3142,
        98.1845,
        98.0556,
        97.9274,
        97.8,
        97.6734,
        97.5476,
        97.4227, 
        97.2987,
        97.1756,
        97.0534,
        96.9322,
        96.812,
        96.6927,
        96.5745, 
        96.4574,
        96.3414,
        96.2264,
        96.1126,
        96.,
        95.8891,
        95.7794,
        95.6709, 
        95.5637,
        95.4577,
        95.353,
        95.2496,
        95.1474,
        95.0466,
        94.9471, 
        94.8489,
        94.7521,
        94.6566,
        94.5625,
        94.4697,
        94.3784,
        94.2885,
        94.2, 
        94.1217,
        94.0451,
        93.9703,
        93.8971,
        93.8254,
        93.7552,
        93.6864, 
        93.619,
        93.5528,
        93.4877,
        93.4238,
        93.3608,
        93.2989,
        93.2377, 
        93.1774,
        93.1178,
        93.0589,
        93.0005,
        92.9426,
        92.8851,
        92.8279, 
        92.771,
        92.7143,
        92.6577,
        92.6012,
        92.5446,
        92.4879,
        92.431,
        92.3738, 
        92.3163,
        92.2584,
        92.2,
        92.1238,
        92.0471,
        91.9698,
        91.892,
        91.8136, 
        91.7348,
        91.6555,
        91.5757,
        91.4955,
        91.4149,
        91.3339,
        91.2526, 
        91.1709,
        91.0889,
        91.0067,
        90.9241,
        90.8413,
        90.7582,
        90.675, 
        90.5916,
        90.508,
        90.4242,
        90.3404,
        90.2564,
        90.1724,
        90.0883, 
        90.0042,
        89.92,
        89.8359,
        89.7518,
        89.6678,
        89.5839,
        89.5,
        89.4363, 
        89.3727,
        89.3089,
        89.2449,
        89.1807,
        89.116,
        89.0509,
        88.9853, 
        88.9189,
        88.8519,
        88.784,
        88.7151,
        88.6452,
        88.5743,
        88.5021, 
        88.4285,
        88.3537,
        88.2773,
        88.1993,
        88.1197,
        88.0383,
        87.955, 
        87.8698,
        87.7826,
        87.6932,
        87.6016,
        87.5076,
        87.4113,
        87.3125, 
        87.211,
        87.1069,
        87.,
        86.8672,
        86.7334,
        86.5988,
        86.4637,
        86.3282, 
        86.1926,
        86.0571,
        85.9218,
        85.7871,
        85.653,
        85.5198,
        85.3876, 
        85.2568,
        85.1276,
        85.,
        84.9013,
        84.8062,
        84.7144,
        84.6259,
        84.5405, 
        84.458,
        84.3784,
        84.3014,
        84.227,
        84.155,
        84.0852,
        84.0176,
        83.9519, 
        83.888,
        83.8259,
        83.7653,
        83.7061,
        83.6481,
        83.5913,
        83.5355, 
        83.4805,
        83.4262,
        83.3725,
        83.3191,
        83.2661,
        83.2132,
        83.1602, 
        83.1072,
        83.0538,
        83.,
        82.9239,
        82.8475,
        82.771,
        82.6942,
        82.6173, 
        82.5403,
        82.4632,
        82.386,
        82.3089,
        82.2317,
        82.1546,
        82.0776, 
        82.0008,
        81.9241,
        81.8475,
        81.7712,
        81.6952,
        81.6194,
        81.544, 
        81.4689,
        81.3942,
        81.3199,
        81.2461,
        81.1728,
        81.1,
        81.0309,
        80.9623, 
        80.8942,
        80.8267,
        80.7597,
        80.6932,
        80.6272,
        80.5618,
        80.4969, 
        80.4325,
        80.3686,
        80.3052,
        80.2424,
        80.18,
        80.1182,
        80.0569,
        79.9962, 
        79.9359,
        79.8761,
        79.8169,
        79.7582,
        79.7,
        79.6471,
        79.595,
        79.5435, 
        79.4927,
        79.4425,
        79.3929,
        79.3439,
        79.2955,
        79.2476,
        79.2002, 
        79.1532,
        79.1068,
        79.0607,
        79.015,
        78.9697,
        78.9247,
        78.88,
        78.8356, 
        78.7915,
        78.7476,
        78.7039,
        78.6604,
        78.617,
        78.5737,
        78.5305, 
        78.4874,
        78.4443,
        78.4012,
        78.3582,
        78.315,
        78.2718,
        78.2285, 
        78.1851,
        78.1415,
        78.0978,
        78.0538,
        78.0096,
        77.9651,
        77.9203, 
        77.8753,
        77.8299,
        77.7841,
        77.7379,
        77.6913,
        77.6442,
        77.5966, 
        77.5486,
        77.5,
        77.4401,
        77.3798,
        77.3192,
        77.2584,
        77.1973,
        77.1359, 
        77.0743,
        77.0124,
        76.9504,
        76.8881,
        76.8257,
        76.7631,
        76.7003, 
        76.6374,
        76.5744,
        76.5113,
        76.4481,
        76.3849,
        76.3215,
        76.2582, 
        76.1948,
        76.1313,
        76.0679,
        76.0046,
        75.9412,
        75.8779,
        75.8147, 
        75.7515,
        75.6884,
        75.6255,
        75.5627,
        75.5,
        75.4398,
        75.3797,
        75.3196, 
        75.2596,
        75.1996,
        75.1396,
        75.0797,
        75.0198,
        74.9599,
        74.9,
        74.8401, 
        74.7802,
        74.7203,
        74.6604,
        74.6004,
        74.5404,
        74.4804,
        74.4203, 
        74.3602,
        74.3,
        74.2397,
        74.1793,
        74.1188,
        74.0582,
        73.9975,
        73.9367, 
        73.8758,
        73.8148,
        73.7537,
        73.6924,
        73.6311,
        73.5695,
        73.5079, 
        73.446,
        73.384,
        73.3219,
        73.2596,
        73.1971,
        73.1344,
        73.0715,
        73.0085, 
        72.9452,
        72.8817,
        72.818,
        72.7541,
        72.69,
        72.6256,
        72.561,
        72.4961, 
        72.431,
        72.3656,
        72.3,
        72.2268,
        72.1534,
        72.0798,
        72.0061,
        71.9322, 
        71.8583,
        71.7844,
        71.7105,
        71.6366,
        71.5628,
        71.4891,
        71.4156, 
        71.3423,
        71.2692,
        71.1964,
        71.124,
        71.0518,
        70.9801,
        70.9088, 
        70.8379,
        70.7675,
        70.6977,
        70.6285,
        70.5599,
        70.4919,
        70.4246, 
        70.3581,
        70.2923,
        70.2274,
        70.1632,
        70.1,
        70.0551,
        70.0115,
        69.9691, 
        69.9279,
        69.8878,
        69.8489,
        69.811,
        69.7741,
        69.7383,
        69.7034, 
        69.6694,
        69.6364,
        69.6042,
        69.5729,
        69.5423,
        69.5125,
        69.4835, 
        69.4551,
        69.4274,
        69.4003,
        69.3738,
        69.3478,
        69.3224,
        69.2974, 
        69.2729,
        69.2488,
        69.2251,
        69.2017,
        69.1787,
        69.1559,
        69.1333, 
        69.111,
        69.0888,
        69.0668,
        69.0448,
        69.0229,
        69.0011,
        68.9792, 
        68.9573,
        68.9353,
        68.9133,
        68.891,
        68.8686,
        68.846,
        68.8232,
        68.8, 
        68.764,
        68.7277,
        68.6911,
        68.6542,
        68.617,
        68.5796,
        68.5418,
        68.5037, 
        68.4653,
        68.4266,
        68.3877,
        68.3484,
        68.3089,
        68.269,
        68.2289, 
        68.1885,
        68.1478,
        68.1069,
        68.0656,
        68.0241,
        67.9823,
        67.9402, 
        67.8979,
        67.8553,
        67.8124,
        67.7692,
        67.7258,
        67.6821,
        67.6381, 
        67.5939,
        67.5494,
        67.5047,
        67.4597,
        67.4144,
        67.3689,
        67.3231, 
        67.2771,
        67.2308,
        67.1843,
        67.1375,
        67.0905,
        67.0433,
        66.9957, 
        66.948,
        66.9,
        66.8483,
        66.7963,
        66.7441,
        66.6916,
        66.639,
        66.5862, 
        66.5332,
        66.4801,
        66.4268,
        66.3733,
        66.3197,
        66.266,
        66.2122, 
        66.1583,
        66.1043,
        66.0503,
        65.9961,
        65.942,
        65.8877,
        65.8335, 
        65.7792,
        65.725,
        65.6707,
        65.6164,
        65.5622,
        65.5081,
        65.4539, 
        65.3999,
        65.3459,
        65.292,
        65.2382,
        65.1845,
        65.1309,
        65.0775, 
        65.0242,
        64.971,
        64.9181,
        64.8653,
        64.8127,
        64.7603,
        64.7081, 
        64.6561,
        64.6044,
        64.5529,
        64.5016,
        64.4507,
        64.4,
        64.3573,
        64.3148, 
        64.2727,
        64.2308,
        64.1892,
        64.1479,
        64.1068,
        64.066,
        64.0254,
        63.985, 
        63.9449,
        63.905,
        63.8653,
        63.8257,
        63.7864,
        63.7472,
        63.7083, 
        63.6694,
        63.6308,
        63.5922,
        63.5538,
        63.5156,
        63.4774,
        63.4394, 
        63.4015,
        63.3636,
        63.3259,
        63.2882,
        63.2506,
        63.2131,
        63.1756, 
        63.1381,
        63.1007,
        63.0633,
        63.026,
        62.9886,
        62.9513,
        62.9139, 
        62.8765,
        62.8391,
        62.8017,
        62.7642,
        62.7267,
        62.6891,
        62.6514, 
        62.6137,
        62.5759,
        62.538,
        62.5,
        62.4584,
        62.4167,
        62.375,
        62.3331, 
        62.2912,
        62.2492,
        62.207,
        62.1648,
        62.1226,
        62.0802,
        62.0378, 
        61.9952,
        61.9526,
        61.91,
        61.8672,
        61.8244,
        61.7815,
        61.7385,
        61.6955, 
        61.6524,
        61.6092,
        61.5659,
        61.5226,
        61.4792,
        61.4358,
        61.3923, 
        61.3487,
        61.3051,
        61.2614,
        61.2177,
        61.1739,
        61.13,
        61.0861,
        61.0422, 
        60.9982,
        60.9541,
        60.91,
        60.8659,
        60.8217,
        60.7774,
        60.7331,
        60.6888, 
        60.6444,
        60.6,
        60.5539,
        60.5077,
        60.4615,
        60.4152,
        60.369,
        60.3227, 
        60.2764,
        60.2301,
        60.1838,
        60.1375,
        60.0912,
        60.0449,
        59.9987, 
        59.9525,
        59.9063,
        59.8602,
        59.8141,
        59.7681,
        59.7221,
        59.6762, 
        59.6303,
        59.5846,
        59.5389,
        59.4933,
        59.4478,
        59.4025,
        59.3572, 
        59.312,
        59.267,
        59.222,
        59.1772,
        59.1326,
        59.0881,
        59.0437,
        58.9995, 
        58.9554,
        58.9115,
        58.8678,
        58.8243,
        58.7809,
        58.7378,
        58.6948, 
        58.652,
        58.6095,
        58.5671,
        58.525,
        58.4831,
        58.4414,
        58.4,
        58.3744, 
        58.3492,
        58.3244,
        58.3001,
        58.2761,
        58.2525,
        58.2292,
        58.2063, 
        58.1837,
        58.1613,
        58.1393,
        58.1174,
        58.0959,
        58.0745,
        58.0533, 
        58.0323,
        58.0114,
        57.9907,
        57.97,
        57.9495,
        57.9291,
        57.9087,
        57.8883, 
        57.868,
        57.8476,
        57.8272,
        57.8068,
        57.7864,
        57.7658,
        57.7452, 
        57.7244,
        57.7035,
        57.6824,
        57.6612,
        57.6398,
        57.6181,
        57.5962, 
        57.5741,
        57.5517,
        57.529,
        57.506,
        57.4826,
        57.4589,
        57.4349,
        57.4104, 
        57.3856,
        57.3603,
        57.3345,
        57.3083,
        57.2816,
        57.2544,
        57.2267, 
        57.1985,
        57.1696,
        57.1402,
        57.1102,
        57.0796,
        57.0483,
        57.0164, 
        56.9838,
        56.9505,
        56.9164,
        56.8817,
        56.8462,
        56.8099,
        56.7728, 
        56.7349,
        56.6961,
        56.6565,
        56.6161,
        56.5747,
        56.5325,
        56.4893, 
        56.4451,
        56.4,
        56.3429,
        56.2853,
        56.2271,
        56.1685,
        56.1093,
        56.0497, 
        55.9896,
        55.929,
        55.868,
        55.8065,
        55.7446,
        55.6823,
        55.6195,
        55.5564, 
        55.4929,
        55.4289,
        55.3646,
        55.3,
        55.235,
        55.1697,
        55.104,
        55.038, 
        54.9717,
        54.9051,
        54.8383,
        54.7711,
        54.7037,
        54.636,
        54.5681,
        54.5, 
        54.4292,
        54.3582,
        54.287,
        54.2157,
        54.1443,
        54.0728,
        54.0012, 
        53.9296,
        53.858,
        53.7864,
        53.7149,
        53.6434,
        53.572,
        53.5008,
        53.4297, 
        53.3588,
        53.2881,
        53.2176,
        53.1474,
        53.0775,
        53.0079,
        52.9386, 
        52.8697,
        52.8012,
        52.7331,
        52.6655,
        52.5983,
        52.5317,
        52.4656,
        52.4, 
        52.3491,
        52.2991,
        52.2502,
        52.2023,
        52.1553,
        52.1093,
        52.0642,
        52.02, 
        51.9767,
        51.9343,
        51.8927,
        51.852,
        51.8121,
        51.773,
        51.7346,
        51.697, 
        51.6602,
        51.624,
        51.5886,
        51.5538,
        51.5197,
        51.4862,
        51.4534, 
        51.4212,
        51.3895,
        51.3584,
        51.3279,
        51.2979,
        51.2683,
        51.2393, 
        51.2108,
        51.1826,
        51.155,
        51.1277,
        51.1008,
        51.0743,
        51.0482, 
        51.0223,
        50.9968,
        50.9716,
        50.9467,
        50.922,
        50.8976,
        50.8734, 
        50.8494,
        50.8255,
        50.8018,
        50.7783,
        50.7549,
        50.7316,
        50.7084, 
        50.6852,
        50.6621,
        50.639,
        50.6159,
        50.5928,
        50.5697,
        50.5466, 
        50.5233,
        50.5,
        50.4766,
        50.453,
        50.4293,
        50.4054,
        50.3814,
        50.3571, 
        50.3326,
        50.3079,
        50.2829,
        50.2577,
        50.2321,
        50.2062,
        50.18,
        50.1535, 
        50.1265,
        50.0992,
        50.0714,
        50.0432,
        50.0146,
        49.9854,
        49.9558, 
        49.9257,
        49.8951,
        49.8639,
        49.8321,
        49.7998,
        49.7668,
        49.7332, 
        49.699,
        49.6641,
        49.6286,
        49.5923,
        49.5553,
        49.5175,
        49.4791, 
        49.4398,
        49.3997,
        49.3588,
        49.3171,
        49.2745,
        49.2311,
        49.1867, 
        49.1415,
        49.0953,
        49.0481,
        49.,
        48.9715,
        48.9432,
        48.9151,
        48.8871, 
        48.8592,
        48.8315,
        48.804,
        48.7765,
        48.7493,
        48.7222,
        48.6952, 
        48.6684,
        48.6417,
        48.6151,
        48.5887,
        48.5624,
        48.5363,
        48.5103, 
        48.4844,
        48.4587,
        48.4331,
        48.4076,
        48.3822,
        48.357,
        48.3319, 
        48.3069,
        48.2821,
        48.2573,
        48.2327,
        48.2082,
        48.1838,
        48.1596, 
        48.1354,
        48.1114,
        48.0875,
        48.0637,
        48.0399,
        48.0163,
        47.9929, 
        47.9695,
        47.9462,
        47.923,
        47.8999,
        47.877,
        47.8541,
        47.8313,
        47.8086, 
        47.786,
        47.7635,
        47.7411,
        47.7188,
        47.6966,
        47.6744,
        47.6524, 
        47.6304,
        47.6085,
        47.5867,
        47.565,
        47.5434,
        47.5218,
        47.5004, 
        47.4789,
        47.4576,
        47.4364,
        47.4152,
        47.3941,
        47.373,
        47.3521, 
        47.3312,
        47.3103,
        47.2895,
        47.2688,
        47.2482,
        47.2276,
        47.207, 
        47.1866,
        47.1662,
        47.1458,
        47.1255,
        47.1052,
        47.085,
        47.0649, 
        47.0448,
        47.0247,
        47.0047,
        46.9847,
        46.9648,
        46.9449,
        46.9251, 
        46.9053,
        46.8855,
        46.8658,
        46.8461,
        46.8265,
        46.8068,
        46.7872, 
        46.7677,
        46.7481,
        46.7286,
        46.7092,
        46.6897,
        46.6703,
        46.6509, 
        46.6315,
        46.6121,
        46.5928,
        46.5734,
        46.5541,
        46.5348,
        46.5155, 
        46.4963,
        46.477,
        46.4577,
        46.4385,
        46.4192,
        46.4,
        46.5326,
        46.6606, 
        46.7841,
        46.9031,
        47.0177,
        47.1279,
        47.2338,
        47.3353,
        47.4326, 
        47.5257,
        47.6147,
        47.6995,
        47.7803,
        47.8571,
        47.9299,
        47.9987, 
        48.0637,
        48.1248,
        48.1822,
        48.2358,
        48.2858,
        48.332,
        48.3747, 
        48.4138,
        48.4494,
        48.4816,
        48.5103,
        48.5357,
        48.5577,
        48.5764, 
        48.5919,
        48.6043,
        48.6134,
        48.6195,
        48.6226,
        48.6226,
        48.6197, 
        48.6138,
        48.6052,
        48.5936,
        48.5793,
        48.5623,
        48.5426,
        48.5203, 
        48.4954,
        48.4679,
        48.438,
        48.4056,
        48.3707,
        48.3336,
        48.2941, 
        48.2524,
        48.2084,
        48.1623,
        48.114,
        48.0636,
        48.0113,
        47.9569, 
        47.9006,
        47.8424,
        47.7823,
        47.7205,
        47.6568,
        47.5915,
        47.5245, 
        47.4559,
        47.3857,
        47.314,
        47.2408,
        47.1662,
        47.0901,
        47.0128, 
        46.9341,
        46.8542,
        46.7731,
        46.6908,
        46.6074,
        46.523,
        46.4375,
        46.351, 
        46.2637,
        46.1754,
        46.0863,
        45.9964,
        45.9058,
        45.8145,
        45.7225, 
        45.6299,
        45.5368,
        45.4431,
        45.349,
        45.2545,
        45.1596,
        45.0643, 
        44.9688,
        44.873,
        44.7771,
        44.681,
        44.5848,
        44.4886,
        44.3923,
        44.2961, 
        44.2,
        44.104,
        44.0082,
        43.9126,
        43.8173,
        43.7223,
        43.6277,
        43.5335, 
        43.4397,
        43.3464,
        43.2537,
        43.1616,
        43.0701,
        42.9793,
        42.8893,
        42.8, 
        42.7115,
        42.624,
        42.5373,
        42.4516,
        42.3669,
        42.2832,
        42.2007, 
        42.1193,
        42.0391,
        41.9602,
        41.8825,
        41.8061,
        41.7312,
        41.6576, 
        41.5856,
        41.515,
        41.446,
        41.3787,
        41.3129,
        41.2489,
        41.1866,
        41.1262, 
        41.0675,
        41.0108,
        40.9559,
        40.9031,
        40.8523,
        40.8035,
        40.7569, 
        40.7124,
        40.6701,
        40.6301,
        40.5924,
        40.557,
        40.5241,
        40.4935, 
        40.4655,
        40.44,
        40.417,
        40.3967,
        40.3791,
        40.3642,
        40.352,
        40.3426, 
        40.3361,
        40.3325,
        40.3319,
        40.3342,
        40.3396,
        40.348,
        40.3596, 
        40.3744,
        40.3924,
        40.4136,
        40.4382,
        40.4661,
        40.4975,
        40.5323, 
        40.5706,
        40.6124,
        40.6578,
        40.7069,
        40.7597,
        40.8161,
        40.8764, 
        40.9405,
        41.0084,
        41.0803,
        41.1561,
        41.236,
        41.3199,
        41.4079,
        41.5
    };
}