#pragma once

namespace phil {
    // lookup table for 18-63mm
    const float REFLECTANCE_LOOKUP_LEFT[1249] = {
         15.,
        15.0211,
        15.0421,
        15.063,
        15.0839,
        15.1046,
        15.1253,
        15.1459, 
        15.1664,
        15.1868,
        15.2071,
        15.2274,
        15.2476,
        15.2676,
        15.2876, 
        15.3076,
        15.3274,
        15.3472,
        15.3668,
        15.3864,
        15.406,
        15.4254, 
        15.4447,
        15.464,
        15.4832,
        15.5023,
        15.5213,
        15.5403,
        15.5592,
        15.578, 
        15.5967,
        15.6153,
        15.6339,
        15.6523,
        15.6707,
        15.6891,
        15.7073, 
        15.7255,
        15.7436,
        15.7616,
        15.7795,
        15.7974,
        15.8151,
        15.8328, 
        15.8505,
        15.868,
        15.8855,
        15.9029,
        15.9202,
        15.9375,
        15.9546, 
        15.9717,
        15.9888,
        16.0057,
        16.0226,
        16.0394,
        16.0561,
        16.0728, 
        16.0894,
        16.1059,
        16.1223,
        16.1387,
        16.155,
        16.1712,
        16.1873, 
        16.2034,
        16.2194,
        16.2353,
        16.2512,
        16.267,
        16.2827,
        16.2984,
        16.314, 
        16.3295,
        16.3449,
        16.3603,
        16.3756,
        16.3908,
        16.406,
        16.4211, 
        16.4361,
        16.451,
        16.4659,
        16.4807,
        16.4955,
        16.5102,
        16.5248, 
        16.5393,
        16.5538,
        16.5682,
        16.5826,
        16.5969,
        16.6111,
        16.6252, 
        16.6393,
        16.6533,
        16.6673,
        16.6812,
        16.695,
        16.7088,
        16.7225, 
        16.7361,
        16.7497,
        16.7632,
        16.7766,
        16.79,
        16.8033,
        16.8166,
        16.8297, 
        16.8429,
        16.8559,
        16.8689,
        16.8819,
        16.8947,
        16.9076,
        16.9203, 
        16.933,
        16.9456,
        16.9582,
        16.9707,
        16.9832,
        16.9956,
        17.0079, 
        17.0202,
        17.0324,
        17.0445,
        17.0566,
        17.0687,
        17.0806,
        17.0926, 
        17.1044,
        17.1162,
        17.128,
        17.1396,
        17.1513,
        17.1629,
        17.1744, 
        17.1858,
        17.1972,
        17.2086,
        17.2199,
        17.2311,
        17.2423,
        17.2534, 
        17.2645,
        17.2755,
        17.2864,
        17.2973,
        17.3082,
        17.319,
        17.3297, 
        17.3404,
        17.351,
        17.3616,
        17.3722,
        17.3826,
        17.393,
        17.4034,
        17.4137, 
        17.424,
        17.4342,
        17.4444,
        17.4545,
        17.4645,
        17.4745,
        17.4845, 
        17.4944,
        17.5043,
        17.5141,
        17.5238,
        17.5335,
        17.5432,
        17.5528, 
        17.5624,
        17.5719,
        17.5813,
        17.5907,
        17.6001,
        17.6094,
        17.6187, 
        17.6279,
        17.6371,
        17.6462,
        17.6553,
        17.6643,
        17.6733,
        17.6822, 
        17.6911,
        17.7,
        17.7088,
        17.7175,
        17.7262,
        17.7349,
        17.7435,
        17.7521, 
        17.7606,
        17.7691,
        17.7776,
        17.7859,
        17.7943,
        17.8026,
        17.8109, 
        17.8191,
        17.8273,
        17.8354,
        17.8435,
        17.8516,
        17.8596,
        17.8676, 
        17.8755,
        17.8834,
        17.8912,
        17.899,
        17.9068,
        17.9145,
        17.9222, 
        17.9298,
        17.9374,
        17.945,
        17.9525,
        17.96,
        17.9675,
        17.9749,
        17.9822, 
        17.9896,
        17.9969,
        18.0041,
        18.0113,
        18.0185,
        18.0257,
        18.0328, 
        18.0398,
        18.0469,
        18.0539,
        18.0608,
        18.0677,
        18.0746,
        18.0815, 
        18.0883,
        18.0951,
        18.1018,
        18.1085,
        18.1152,
        18.1218,
        18.1284, 
        18.135,
        18.1415,
        18.1481,
        18.1545,
        18.161,
        18.1674,
        18.1737,
        18.1801, 
        18.1864,
        18.1927,
        18.1989,
        18.2051,
        18.2113,
        18.2174,
        18.2236, 
        18.2296,
        18.2357,
        18.2417,
        18.2477,
        18.2537,
        18.2596,
        18.2655, 
        18.2714,
        18.2773,
        18.2831,
        18.2889,
        18.2946,
        18.3004,
        18.3061, 
        18.3117,
        18.3174,
        18.323,
        18.3286,
        18.3342,
        18.3397,
        18.3452, 
        18.3507,
        18.3562,
        18.3616,
        18.367,
        18.3724,
        18.3777,
        18.3831, 
        18.3884,
        18.3937,
        18.3989,
        18.4042,
        18.4094,
        18.4146,
        18.4197, 
        18.4249,
        18.43,
        18.4351,
        18.4401,
        18.4452,
        18.4502,
        18.4552,
        18.4602, 
        18.4651,
        18.4701,
        18.475,
        18.4799,
        18.4848,
        18.4896,
        18.4944, 
        18.4992,
        18.504,
        18.5088,
        18.5136,
        18.5183,
        18.523,
        18.5277,
        18.5324, 
        18.537,
        18.5417,
        18.5463,
        18.5509,
        18.5555,
        18.56,
        18.5646,
        18.5691, 
        18.5736,
        18.5781,
        18.5826,
        18.587,
        18.5915,
        18.5959,
        18.6003, 
        18.6047,
        18.6091,
        18.6135,
        18.6178,
        18.6222,
        18.6265,
        18.6308, 
        18.6351,
        18.6394,
        18.6437,
        18.6479,
        18.6522,
        18.6564,
        18.6606, 
        18.6648,
        18.669,
        18.6732,
        18.6773,
        18.6815,
        18.6856,
        18.6898, 
        18.6939,
        18.698,
        18.7021,
        18.7062,
        18.7103,
        18.7143,
        18.7184, 
        18.7224,
        18.7265,
        18.7305,
        18.7345,
        18.7385,
        18.7426,
        18.7465, 
        18.7505,
        18.7545,
        18.7585,
        18.7624,
        18.7664,
        18.7703,
        18.7743, 
        18.7782,
        18.7822,
        18.7861,
        18.79,
        18.7939,
        18.7978,
        18.8017,
        18.8056, 
        18.8095,
        18.8134,
        18.8173,
        18.8211,
        18.825,
        18.8289,
        18.8327, 
        18.8366,
        18.8404,
        18.8443,
        18.8481,
        18.852,
        18.8558,
        18.8597, 
        18.8635,
        18.8673,
        18.8712,
        18.875,
        18.8789,
        18.8827,
        18.8865, 
        18.8903,
        18.8942,
        18.898,
        18.9018,
        18.9057,
        18.9095,
        18.9133, 
        18.9172,
        18.921,
        18.9248,
        18.9287,
        18.9325,
        18.9363,
        18.9402,
        18.944, 
        18.9479,
        18.9517,
        18.9556,
        18.9594,
        18.9633,
        18.9671,
        18.971, 
        18.9749,
        18.9787,
        18.9826,
        18.9865,
        18.9904,
        18.9943,
        18.9982, 
        19.0021,
        19.006,
        19.0099,
        19.0138,
        19.0177,
        19.0217,
        19.0256, 
        19.0296,
        19.0335,
        19.0375,
        19.0414,
        19.0454,
        19.0494,
        19.0534, 
        19.0574,
        19.0614,
        19.0654,
        19.0694,
        19.0735,
        19.0775,
        19.0816, 
        19.0856,
        19.0897,
        19.0938,
        19.0979,
        19.102,
        19.1061,
        19.1103, 
        19.1144,
        19.1185,
        19.1227,
        19.1269,
        19.1311,
        19.1353,
        19.1395, 
        19.1437,
        19.1479,
        19.1522,
        19.1564,
        19.1607,
        19.165,
        19.1693, 
        19.1736,
        19.178,
        19.1823,
        19.1867,
        19.1911,
        19.1955,
        19.1999, 
        19.2043,
        19.2087,
        19.2132,
        19.2177,
        19.2221,
        19.2267,
        19.2312, 
        19.2357,
        19.2403,
        19.2448,
        19.2494,
        19.2541,
        19.2587,
        19.2633, 
        19.268,
        19.2727,
        19.2774,
        19.2821,
        19.2869,
        19.2916,
        19.2964, 
        19.3012,
        19.306,
        19.3109,
        19.3157,
        19.3206,
        19.3255,
        19.3304, 
        19.3354,
        19.3404,
        19.3454,
        19.3504,
        19.3554,
        19.3605,
        19.3656, 
        19.3707,
        19.3758,
        19.3809,
        19.3861,
        19.3913,
        19.3965,
        19.4018, 
        19.4071,
        19.4124,
        19.4177,
        19.423,
        19.4284,
        19.4338,
        19.4392, 
        19.4447,
        19.4502,
        19.4557,
        19.4612,
        19.4667,
        19.4723,
        19.4779, 
        19.4836,
        19.4892,
        19.4949,
        19.5007,
        19.5064,
        19.5122,
        19.518, 
        19.5238,
        19.5297,
        19.5356,
        19.5415,
        19.5475,
        19.5535,
        19.5595, 
        19.5655,
        19.5716,
        19.5777,
        19.5838,
        19.59,
        19.5962,
        19.6024,
        19.6087, 
        19.615,
        19.6213,
        19.6277,
        19.6341,
        19.6405,
        19.647,
        19.6534,
        19.66, 
        19.6665,
        19.6731,
        19.6797,
        19.6864,
        19.6931,
        19.6998,
        19.7066, 
        19.7134,
        19.7202,
        19.7271,
        19.734,
        19.741,
        19.7479,
        19.755,
        19.762, 
        19.7691,
        19.7762,
        19.7834,
        19.7906,
        19.7978,
        19.8051,
        19.8124, 
        19.8198,
        19.8272,
        19.8346,
        19.8421,
        19.8496,
        19.8571,
        19.8647, 
        19.8724,
        19.88,
        19.8877,
        19.8955,
        19.9033,
        19.9111,
        19.919,
        19.9269, 
        19.9348,
        19.9428,
        19.9509,
        19.959,
        19.9671,
        19.9752,
        19.9835, 
        19.9917,
        20.,
        20.027,
        20.0539,
        20.0806,
        20.1071,
        20.1335,
        20.1597, 
        20.1857,
        20.2115,
        20.2372,
        20.2627,
        20.2881,
        20.3132,
        20.3382, 
        20.3631,
        20.3878,
        20.4123,
        20.4367,
        20.4609,
        20.485,
        20.5089, 
        20.5326,
        20.5562,
        20.5797,
        20.603,
        20.6261,
        20.6491,
        20.6719, 
        20.6946,
        20.7172,
        20.7396,
        20.7619,
        20.784,
        20.806,
        20.8279,
        20.8496, 
        20.8711,
        20.8926,
        20.9139,
        20.9351,
        20.9561,
        20.977,
        20.9978, 
        21.0184,
        21.0389,
        21.0593,
        21.0796,
        21.0997,
        21.1198,
        21.1397, 
        21.1594,
        21.1791,
        21.1986,
        21.218,
        21.2374,
        21.2565,
        21.2756, 
        21.2946,
        21.3134,
        21.3322,
        21.3508,
        21.3693,
        21.3877,
        21.406, 
        21.4242,
        21.4423,
        21.4603,
        21.4782,
        21.496,
        21.5137,
        21.5313, 
        21.5488,
        21.5662,
        21.5835,
        21.6007,
        21.6179,
        21.6349,
        21.6518, 
        21.6687,
        21.6854,
        21.7021,
        21.7187,
        21.7352,
        21.7516,
        21.768, 
        21.7842,
        21.8004,
        21.8165,
        21.8326,
        21.8485,
        21.8644,
        21.8802, 
        21.8959,
        21.9116,
        21.9271,
        21.9426,
        21.9581,
        21.9735,
        21.9888, 
        22.004,
        22.0192,
        22.0343,
        22.0494,
        22.0644,
        22.0793,
        22.0942,
        22.109, 
        22.1238,
        22.1385,
        22.1532,
        22.1678,
        22.1823,
        22.1968,
        22.2113, 
        22.2257,
        22.2401,
        22.2544,
        22.2686,
        22.2829,
        22.2971,
        22.3112, 
        22.3253,
        22.3394,
        22.3534,
        22.3674,
        22.3813,
        22.3953,
        22.4092, 
        22.423,
        22.4368,
        22.4506,
        22.4644,
        22.4781,
        22.4919,
        22.5055, 
        22.5192,
        22.5329,
        22.5465,
        22.5601,
        22.5737,
        22.5872,
        22.6008, 
        22.6143,
        22.6278,
        22.6413,
        22.6548,
        22.6683,
        22.6817,
        22.6952, 
        22.7087,
        22.7221,
        22.7355,
        22.749,
        22.7624,
        22.7758,
        22.7893, 
        22.8027,
        22.8161,
        22.8295,
        22.843,
        22.8564,
        22.8699,
        22.8833, 
        22.8968,
        22.9102,
        22.9237,
        22.9372,
        22.9507,
        22.9642,
        22.9778, 
        22.9913,
        23.0049,
        23.0185,
        23.0321,
        23.0457,
        23.0593,
        23.073, 
        23.0867,
        23.1004,
        23.1141,
        23.1279,
        23.1417,
        23.1555,
        23.1694, 
        23.1833,
        23.1972,
        23.2112,
        23.2252,
        23.2392,
        23.2533,
        23.2674, 
        23.2815,
        23.2957,
        23.31,
        23.3242,
        23.3386,
        23.3529,
        23.3673,
        23.3818, 
        23.3963,
        23.4109,
        23.4255,
        23.4402,
        23.4549,
        23.4696,
        23.4845, 
        23.4994,
        23.5143,
        23.5293,
        23.5444,
        23.5595,
        23.5747,
        23.5899, 
        23.6053,
        23.6206,
        23.6361,
        23.6516,
        23.6672,
        23.6829,
        23.6986, 
        23.7144,
        23.7303,
        23.7463,
        23.7623,
        23.7784,
        23.7946,
        23.8109, 
        23.8272,
        23.8436,
        23.8602,
        23.8768,
        23.8934,
        23.9102,
        23.9271, 
        23.944,
        23.9611,
        23.9782,
        23.9954,
        24.0128,
        24.0302,
        24.0477, 
        24.0653,
        24.083,
        24.1008,
        24.1187,
        24.1367,
        24.1548,
        24.173,
        24.1914, 
        24.2098,
        24.2283,
        24.247,
        24.2657,
        24.2846,
        24.3035,
        24.3226, 
        24.3418,
        24.3611,
        24.3806,
        24.4001,
        24.4198,
        24.4396,
        24.4595, 
        24.4795,
        24.4997,
        24.52,
        24.5404,
        24.5609,
        24.5816,
        24.6024,
        24.6233, 
        24.6443,
        24.6655,
        24.6869,
        24.7083,
        24.7299,
        24.7516,
        24.7735, 
        24.7955,
        24.8176,
        24.8399,
        24.8624,
        24.8849,
        24.9076,
        24.9305, 
        24.9535,
        24.9767,
        25.,
        25.0359,
        25.0717,
        25.1073,
        25.1427,
        25.1781, 
        25.2133,
        25.2483,
        25.2832,
        25.318,
        25.3527,
        25.3873,
        25.4217, 
        25.4561,
        25.4903,
        25.5244,
        25.5584,
        25.5924,
        25.6262,
        25.66,
        25.6936, 
        25.7272,
        25.7608,
        25.7942,
        25.8276,
        25.8609,
        25.8941,
        25.9273, 
        25.9605,
        25.9936,
        26.0266,
        26.0596,
        26.0926,
        26.1255,
        26.1584, 
        26.1913,
        26.2242,
        26.257,
        26.2898,
        26.3226,
        26.3554,
        26.3882,
        26.421, 
        26.4538,
        26.4866,
        26.5195,
        26.5523,
        26.5852,
        26.618,
        26.6509, 
        26.6839,
        26.7169,
        26.7499,
        26.7829,
        26.816,
        26.8492,
        26.8824, 
        26.9156,
        26.949,
        26.9824,
        27.0158,
        27.0493,
        27.0829,
        27.1166, 
        27.1504,
        27.1843,
        27.2182,
        27.2523,
        27.2864,
        27.3206,
        27.355, 
        27.3895,
        27.424,
        27.4587,
        27.4936,
        27.5285,
        27.5636,
        27.5988, 
        27.6341,
        27.6696,
        27.7053,
        27.7411,
        27.777,
        27.8131,
        27.8493, 
        27.8858,
        27.9223,
        27.9591,
        27.996,
        28.0331,
        28.0704,
        28.1079, 
        28.1456,
        28.1834,
        28.2215,
        28.2598,
        28.2983,
        28.3369,
        28.3758, 
        28.4149,
        28.4543,
        28.4938,
        28.5336,
        28.5737,
        28.6139,
        28.6544, 
        28.6952,
        28.7361,
        28.7774,
        28.8189,
        28.8606,
        28.9027,
        28.945, 
        28.9875,
        29.0303,
        29.0735,
        29.1168,
        29.1605,
        29.2045,
        29.2488, 
        29.2933,
        29.3382,
        29.3833,
        29.4288,
        29.4746,
        29.5207,
        29.5671, 
        29.6139,
        29.661,
        29.7084,
        29.7561,
        29.8042,
        29.8526,
        29.9014, 
        29.9505,
        30.,
        30.0503,
        30.1009,
        30.1518,
        30.2031,
        30.2548,
        30.3068, 
        30.3592,
        30.412,
        30.4651,
        30.5186,
        30.5725,
        30.6268,
        30.6814, 
        30.7365,
        30.7919,
        30.8478,
        30.904,
        30.9607,
        31.0178,
        31.0753, 
        31.1332,
        31.1915,
        31.2503,
        31.3095,
        31.3691,
        31.4292,
        31.4898, 
        31.5507,
        31.6122,
        31.6741,
        31.7364,
        31.7993,
        31.8625,
        31.9263, 
        31.9906,
        32.0553,
        32.1205,
        32.1862,
        32.2524,
        32.3191,
        32.3863, 
        32.454,
        32.5223,
        32.591,
        32.6603,
        32.73,
        32.8004,
        32.8712,
        32.9426, 
        33.0145,
        33.087,
        33.16,
        33.2335,
        33.3077,
        33.3823,
        33.4576,
        33.5334, 
        33.6098,
        33.6867,
        33.7643,
        33.8424,
        33.9211,
        34.0005,
        34.0804, 
        34.1609,
        34.242,
        34.3237,
        34.4061,
        34.489,
        34.5726,
        34.6568,
        34.7417, 
        34.8271,
        34.9132,
        35.,
        35.1006,
        35.201,
        35.3013,
        35.4013,
        35.5012, 
        35.6009,
        35.7006,
        35.8002,
        35.8997,
        35.9992,
        36.0987,
        36.1982, 
        36.2977,
        36.3973,
        36.4971,
        36.5969,
        36.6969,
        36.797,
        36.8973, 
        36.9979,
        37.0987,
        37.1997,
        37.3011,
        37.4027,
        37.5047,
        37.6071, 
        37.7098,
        37.813,
        37.9166,
        38.0206,
        38.1251,
        38.2302,
        38.3358, 
        38.4419,
        38.5486,
        38.6559,
        38.7639,
        38.8725,
        38.9818,
        39.0918, 
        39.2025,
        39.314,
        39.4262,
        39.5393,
        39.6532,
        39.7679,
        39.8835,
        40., 
        40.2003,
        40.3942,
        40.5819,
        40.7637,
        40.9398,
        41.1105,
        41.2761, 
        41.4369,
        41.593,
        41.7447,
        41.8923,
        42.0361,
        42.1763,
        42.3131, 
        42.4468,
        42.5778,
        42.7062,
        42.8322,
        42.9562,
        43.0784,
        43.1991, 
        43.3185,
        43.4369,
        43.5545,
        43.6716,
        43.7885,
        43.9054,
        44.0225, 
        44.1402,
        44.2586,
        44.3781,
        44.4988,
        44.6212,
        44.7453,
        44.8715,
        45., 
        45.0149,
        45.0476,
        45.0978,
        45.1648,
        45.2484,
        45.348,
        45.4631, 
        45.5934,
        45.7383,
        45.8974,
        46.0703,
        46.2564,
        46.4554,
        46.6667, 
        46.8899,
        47.1245,
        47.3702,
        47.6264,
        47.8926,
        48.1685,
        48.4535, 
        48.7473,
        49.0492,
        49.359,
        49.6761,
        50.,
        50.3304,
        50.6667,
        51.0085, 
        51.3553,
        51.7067,
        52.0623,
        52.4215,
        52.7839,
        53.149,
        53.5165, 
        53.8858,
        54.2564,
        54.628,
        55.,
        55.372,
        55.7436,
        56.1142,
        56.4835, 
        56.851,
        57.2161,
        57.5785,
        57.9377,
        58.2933,
        58.6447,
        58.9915, 
        59.3333,
        59.6696,
        60.
     };
    const float REFLECTANCE_LOOKUP_RIGHT[1417] = {
         15.,
        15.0155,
        15.031,
        15.0464,
        15.0617,
        15.077,
        15.0922,
        15.1074, 
        15.1225,
        15.1376,
        15.1526,
        15.1675,
        15.1824,
        15.1973,
        15.2121, 
        15.2268,
        15.2415,
        15.2561,
        15.2707,
        15.2852,
        15.2997,
        15.3141, 
        15.3285,
        15.3428,
        15.3571,
        15.3713,
        15.3854,
        15.3995,
        15.4136, 
        15.4276,
        15.4415,
        15.4554,
        15.4693,
        15.4831,
        15.4968,
        15.5105, 
        15.5242,
        15.5377,
        15.5513,
        15.5648,
        15.5782,
        15.5916,
        15.6049, 
        15.6182,
        15.6315,
        15.6446,
        15.6578,
        15.6709,
        15.6839,
        15.6969, 
        15.7098,
        15.7227,
        15.7356,
        15.7484,
        15.7611,
        15.7738,
        15.7864, 
        15.799,
        15.8116,
        15.8241,
        15.8366,
        15.849,
        15.8613,
        15.8736,
        15.8859, 
        15.8981,
        15.9103,
        15.9224,
        15.9345,
        15.9465,
        15.9585,
        15.9704, 
        15.9823,
        15.9942,
        16.006,
        16.0177,
        16.0294,
        16.0411,
        16.0527, 
        16.0643,
        16.0758,
        16.0873,
        16.0987,
        16.1101,
        16.1214,
        16.1327, 
        16.144,
        16.1552,
        16.1664,
        16.1775,
        16.1886,
        16.1996,
        16.2106, 
        16.2215,
        16.2324,
        16.2433,
        16.2541,
        16.2649,
        16.2756,
        16.2863, 
        16.297,
        16.3076,
        16.3181,
        16.3286,
        16.3391,
        16.3496,
        16.3599,
        16.3703,
        16.3806,
        16.3909,
        16.4011,
        16.4113,
        16.4214,
        16.4315,
        16.4416, 
        16.4516,
        16.4616,
        16.4715,
        16.4814,
        16.4913,
        16.5011,
        16.5109, 
        16.5207,
        16.5304,
        16.54,
        16.5496,
        16.5592,
        16.5688,
        16.5783,
        16.5877, 
        16.5972,
        16.6066,
        16.6159,
        16.6252,
        16.6345,
        16.6437,
        16.6529, 
        16.6621,
        16.6712,
        16.6803,
        16.6894,
        16.6984,
        16.7073,
        16.7163, 
        16.7252,
        16.734,
        16.7429,
        16.7517,
        16.7604,
        16.7691,
        16.7778, 
        16.7865,
        16.7951,
        16.8036,
        16.8122,
        16.8207,
        16.8292,
        16.8376, 
        16.846,
        16.8544,
        16.8627,
        16.871,
        16.8792,
        16.8875,
        16.8957,
        16.9038, 
        16.9119,
        16.92,
        16.9281,
        16.9361,
        16.9441,
        16.952,
        16.96,
        16.9679, 
        16.9757,
        16.9835,
        16.9913,
        16.9991,
        17.0068,
        17.0145,
        17.0222, 
        17.0298,
        17.0374,
        17.045,
        17.0525,
        17.06,
        17.0675,
        17.0749,
        17.0823, 
        17.0897,
        17.097,
        17.1044,
        17.1117,
        17.1189,
        17.1261,
        17.1333, 
        17.1405,
        17.1476,
        17.1547,
        17.1618,
        17.1689,
        17.1759,
        17.1829, 
        17.1898,
        17.1968,
        17.2037,
        17.2105,
        17.2174,
        17.2242,
        17.231, 
        17.2377,
        17.2445,
        17.2512,
        17.2578,
        17.2645,
        17.2711,
        17.2777, 
        17.2843,
        17.2908,
        17.2973,
        17.3038,
        17.3103,
        17.3167,
        17.3231, 
        17.3295,
        17.3358,
        17.3422,
        17.3485,
        17.3547,
        17.361,
        17.3672, 
        17.3734,
        17.3796,
        17.3857,
        17.3919,
        17.398,
        17.404,
        17.4101,
        17.4161, 
        17.4221,
        17.4281,
        17.434,
        17.44,
        17.4459,
        17.4517,
        17.4576,
        17.4634, 
        17.4692,
        17.475,
        17.4808,
        17.4865,
        17.4923,
        17.498,
        17.5036,
        17.5093, 
        17.5149,
        17.5205,
        17.5261,
        17.5317,
        17.5372,
        17.5427,
        17.5482, 
        17.5537,
        17.5591,
        17.5646,
        17.57,
        17.5754,
        17.5808,
        17.5861,
        17.5914, 
        17.5968,
        17.602,
        17.6073,
        17.6126,
        17.6178,
        17.623,
        17.6282,
        17.6334, 
        17.6385,
        17.6437,
        17.6488,
        17.6539,
        17.6589,
        17.664,
        17.669,
        17.6741, 
        17.6791,
        17.6841,
        17.689,
        17.694,
        17.6989,
        17.7038,
        17.7087,
        17.7136, 
        17.7185,
        17.7233,
        17.7281,
        17.733,
        17.7378,
        17.7425,
        17.7473,
        17.752, 
        17.7568,
        17.7615,
        17.7662,
        17.7709,
        17.7755,
        17.7802,
        17.7848, 
        17.7895,
        17.7941,
        17.7987,
        17.8032,
        17.8078,
        17.8124,
        17.8169, 
        17.8214,
        17.8259,
        17.8304,
        17.8349,
        17.8394,
        17.8438,
        17.8482, 
        17.8527,
        17.8571,
        17.8615,
        17.8659,
        17.8702,
        17.8746,
        17.8789, 
        17.8833,
        17.8876,
        17.8919,
        17.8962,
        17.9005,
        17.9048,
        17.909, 
        17.9133,
        17.9175,
        17.9218,
        17.926,
        17.9302,
        17.9344,
        17.9386, 
        17.9428,
        17.9469,
        17.9511,
        17.9552,
        17.9594,
        17.9635,
        17.9676, 
        17.9717,
        17.9758,
        17.9799,
        17.984,
        17.988,
        17.9921,
        17.9961,
        18.0002, 
        18.0042,
        18.0082,
        18.0123,
        18.0163,
        18.0203,
        18.0243,
        18.0282, 
        18.0322,
        18.0362,
        18.0402,
        18.0441,
        18.0481,
        18.052,
        18.0559, 
        18.0599,
        18.0638,
        18.0677,
        18.0716,
        18.0755,
        18.0794,
        18.0833, 
        18.0872,
        18.0911,
        18.0949,
        18.0988,
        18.1027,
        18.1065,
        18.1104, 
        18.1142,
        18.1181,
        18.1219,
        18.1257,
        18.1296,
        18.1334,
        18.1372, 
        18.141,
        18.1449,
        18.1487,
        18.1525,
        18.1563,
        18.1601,
        18.1639, 
        18.1677,
        18.1715,
        18.1752,
        18.179,
        18.1828,
        18.1866,
        18.1904, 
        18.1941,
        18.1979,
        18.2017,
        18.2055,
        18.2092,
        18.213,
        18.2168, 
        18.2205,
        18.2243,
        18.2281,
        18.2318,
        18.2356,
        18.2393,
        18.2431, 
        18.2469,
        18.2506,
        18.2544,
        18.2581,
        18.2619,
        18.2657,
        18.2694, 
        18.2732,
        18.2769,
        18.2807,
        18.2845,
        18.2882,
        18.292,
        18.2958, 
        18.2995,
        18.3033,
        18.3071,
        18.3109,
        18.3146,
        18.3184,
        18.3222, 
        18.326,
        18.3298,
        18.3336,
        18.3374,
        18.3412,
        18.345,
        18.3488,
        18.3526, 
        18.3564,
        18.3602,
        18.364,
        18.3678,
        18.3717,
        18.3755,
        18.3793, 
        18.3832,
        18.387,
        18.3909,
        18.3947,
        18.3986,
        18.4024,
        18.4063, 
        18.4102,
        18.414,
        18.4179,
        18.4218,
        18.4257,
        18.4296,
        18.4335, 
        18.4374,
        18.4414,
        18.4453,
        18.4492,
        18.4532,
        18.4571,
        18.4611, 
        18.465,
        18.469,
        18.473,
        18.477,
        18.481,
        18.485,
        18.489,
        18.493, 
        18.497,
        18.501,
        18.5051,
        18.5091,
        18.5132,
        18.5173,
        18.5213,
        18.5254, 
        18.5295,
        18.5336,
        18.5378,
        18.5419,
        18.546,
        18.5502,
        18.5543, 
        18.5585,
        18.5627,
        18.5668,
        18.571,
        18.5752,
        18.5795,
        18.5837, 
        18.5879,
        18.5922,
        18.5965,
        18.6007,
        18.605,
        18.6093,
        18.6136, 
        18.6179,
        18.6223,
        18.6266,
        18.631,
        18.6354,
        18.6397,
        18.6441, 
        18.6486,
        18.653,
        18.6574,
        18.6619,
        18.6663,
        18.6708,
        18.6753, 
        18.6798,
        18.6843,
        18.6889,
        18.6934,
        18.698,
        18.7026,
        18.7072, 
        18.7118,
        18.7164,
        18.721,
        18.7257,
        18.7303,
        18.735,
        18.7397,
        18.7444, 
        18.7492,
        18.7539,
        18.7587,
        18.7635,
        18.7683,
        18.7731,
        18.7779, 
        18.7827,
        18.7876,
        18.7925,
        18.7974,
        18.8023,
        18.8072,
        18.8122, 
        18.8172,
        18.8221,
        18.8271,
        18.8322,
        18.8372,
        18.8423,
        18.8473, 
        18.8524,
        18.8576,
        18.8627,
        18.8678,
        18.873,
        18.8782,
        18.8834, 
        18.8886,
        18.8939,
        18.8992,
        18.9045,
        18.9098,
        18.9151,
        18.9205, 
        18.9258,
        18.9312,
        18.9366,
        18.9421,
        18.9475,
        18.953,
        18.9585,
        18.964, 
        18.9695,
        18.9751,
        18.9807,
        18.9863,
        18.9919,
        18.9976,
        19.0033, 
        19.0089,
        19.0147,
        19.0204,
        19.0262,
        19.032,
        19.0378,
        19.0436, 
        19.0495,
        19.0553,
        19.0612,
        19.0672,
        19.0731,
        19.0791,
        19.0851, 
        19.0911,
        19.0972,
        19.1032,
        19.1093,
        19.1155,
        19.1216,
        19.1278, 
        19.134,
        19.1402,
        19.1464,
        19.1527,
        19.159,
        19.1654,
        19.1717,
        19.1781, 
        19.1845,
        19.1909,
        19.1974,
        19.2039,
        19.2104,
        19.2169,
        19.2235, 
        19.2301,
        19.2367,
        19.2433,
        19.25,
        19.2567,
        19.2634,
        19.2702,
        19.277, 
        19.2838,
        19.2907,
        19.2975,
        19.3044,
        19.3114,
        19.3183,
        19.3253, 
        19.3323,
        19.3394,
        19.3464,
        19.3535,
        19.3607,
        19.3678,
        19.375, 
        19.3823,
        19.3895,
        19.3968,
        19.4041,
        19.4115,
        19.4189,
        19.4263, 
        19.4337,
        19.4412,
        19.4487,
        19.4562,
        19.4638,
        19.4714,
        19.479, 
        19.4867,
        19.4944,
        19.5021,
        19.5098,
        19.5176,
        19.5255,
        19.5333, 
        19.5412,
        19.5491,
        19.5571,
        19.5651,
        19.5731,
        19.5811,
        19.5892, 
        19.5973,
        19.6055,
        19.6137,
        19.6219,
        19.6302,
        19.6385,
        19.6468, 
        19.6552,
        19.6636,
        19.672,
        19.6805,
        19.689,
        19.6975,
        19.7061,
        19.7147, 
        19.7233,
        19.732,
        19.7407,
        19.7495,
        19.7583,
        19.7671,
        19.776,
        19.7849, 
        19.7938,
        19.8028,
        19.8118,
        19.8208,
        19.8299,
        19.839,
        19.8482, 
        19.8574,
        19.8666,
        19.8759,
        19.8852,
        19.8946,
        19.904,
        19.9134, 
        19.9229,
        19.9324,
        19.9419,
        19.9515,
        19.9611,
        19.9708,
        19.9805, 
        19.9902,
        20.,
        20.02,
        20.0398,
        20.0596,
        20.0793,
        20.099,
        20.1186, 
        20.1381,
        20.1575,
        20.1769,
        20.1961,
        20.2153,
        20.2345,
        20.2536, 
        20.2726,
        20.2915,
        20.3104,
        20.3292,
        20.3479,
        20.3666,
        20.3852, 
        20.4037,
        20.4222,
        20.4406,
        20.4589,
        20.4772,
        20.4954,
        20.5136, 
        20.5317,
        20.5497,
        20.5677,
        20.5856,
        20.6034,
        20.6212,
        20.639, 
        20.6567,
        20.6743,
        20.6919,
        20.7094,
        20.7269,
        20.7443,
        20.7617, 
        20.779,
        20.7962,
        20.8134,
        20.8306,
        20.8477,
        20.8648,
        20.8818, 
        20.8987,
        20.9157,
        20.9325,
        20.9494,
        20.9661,
        20.9829,
        20.9996, 
        21.0162,
        21.0328,
        21.0494,
        21.0659,
        21.0824,
        21.0988,
        21.1152, 
        21.1316,
        21.1479,
        21.1642,
        21.1804,
        21.1966,
        21.2128,
        21.2289, 
        21.245,
        21.2611,
        21.2771,
        21.2931,
        21.3091,
        21.325,
        21.341,
        21.3568, 
        21.3727,
        21.3885,
        21.4043,
        21.42,
        21.4358,
        21.4515,
        21.4672,
        21.4828, 
        21.4984,
        21.514,
        21.5296,
        21.5452,
        21.5607,
        21.5762,
        21.5917, 
        21.6072,
        21.6226,
        21.6381,
        21.6535,
        21.6689,
        21.6842,
        21.6996, 
        21.715,
        21.7303,
        21.7456,
        21.7609,
        21.7762,
        21.7914,
        21.8067, 
        21.8219,
        21.8372,
        21.8524,
        21.8676,
        21.8828,
        21.898,
        21.9132,
        21.9284,
        21.9435,
        21.9587,
        21.9739,
        21.989,
        22.0042,
        22.0193,
        22.0344, 
        22.0496,
        22.0647,
        22.0799,
        22.095,
        22.1101,
        22.1252,
        22.1404, 
        22.1555,
        22.1707,
        22.1858,
        22.2009,
        22.2161,
        22.2312,
        22.2464, 
        22.2615,
        22.2767,
        22.2919,
        22.3071,
        22.3223,
        22.3375,
        22.3527, 
        22.3679,
        22.3831,
        22.3984,
        22.4136,
        22.4289,
        22.4442,
        22.4595, 
        22.4748,
        22.4901,
        22.5054,
        22.5208,
        22.5361,
        22.5515,
        22.5669, 
        22.5824,
        22.5978,
        22.6133,
        22.6287,
        22.6443,
        22.6598,
        22.6753, 
        22.6909,
        22.7065,
        22.7221,
        22.7378,
        22.7534,
        22.7691,
        22.7849, 
        22.8006,
        22.8164,
        22.8322,
        22.848,
        22.8639,
        22.8798,
        22.8957, 
        22.9117,
        22.9277,
        22.9437,
        22.9597,
        22.9758,
        22.992,
        23.0081, 
        23.0243,
        23.0405,
        23.0568,
        23.0731,
        23.0895,
        23.1058,
        23.1223, 
        23.1387,
        23.1552,
        23.1718,
        23.1884,
        23.205,
        23.2217,
        23.2384, 
        23.2552,
        23.272,
        23.2888,
        23.3057,
        23.3227,
        23.3397,
        23.3567, 
        23.3738,
        23.3909,
        23.4081,
        23.4254,
        23.4427,
        23.46,
        23.4774,
        23.4949, 
        23.5124,
        23.5299,
        23.5475,
        23.5652,
        23.5829,
        23.6007,
        23.6186, 
        23.6365,
        23.6544,
        23.6724,
        23.6905,
        23.7086,
        23.7268,
        23.7451, 
        23.7634,
        23.7818,
        23.8002,
        23.8188,
        23.8373,
        23.856,
        23.8747, 
        23.8935,
        23.9123,
        23.9312,
        23.9502,
        23.9692,
        23.9884,
        24.0075, 
        24.0268,
        24.0461,
        24.0655,
        24.085,
        24.1046,
        24.1242,
        24.1439, 
        24.1636,
        24.1835,
        24.2034,
        24.2234,
        24.2435,
        24.2637,
        24.2839, 
        24.3042,
        24.3246,
        24.3451,
        24.3656,
        24.3863,
        24.407,
        24.4278, 
        24.4487,
        24.4697,
        24.4907,
        24.5119,
        24.5331,
        24.5544,
        24.5758, 
        24.5973,
        24.6189,
        24.6406,
        24.6623,
        24.6842,
        24.7061,
        24.7282, 
        24.7503,
        24.7725,
        24.7948,
        24.8173,
        24.8398,
        24.8624,
        24.8851, 
        24.9078,
        24.9307,
        24.9537,
        24.9768,
        25.,
        25.0313,
        25.0625,
        25.0936, 
        25.1247,
        25.1557,
        25.1867,
        25.2175,
        25.2484,
        25.2791,
        25.3098, 
        25.3405,
        25.3711,
        25.4016,
        25.4321,
        25.4626,
        25.493,
        25.5234, 
        25.5537,
        25.584,
        25.6142,
        25.6444,
        25.6746,
        25.7048,
        25.7349,
        25.765, 
        25.795,
        25.8251,
        25.8551,
        25.8851,
        25.9151,
        25.945,
        25.975,
        26.0049, 
        26.0349,
        26.0648,
        26.0947,
        26.1246,
        26.1545,
        26.1844,
        26.2143, 
        26.2443,
        26.2742,
        26.3041,
        26.334,
        26.364,
        26.394,
        26.4239,
        26.4539, 
        26.4839,
        26.514,
        26.544,
        26.5741,
        26.6042,
        26.6344,
        26.6645,
        26.6947, 
        26.725,
        26.7553,
        26.7856,
        26.8159,
        26.8463,
        26.8768,
        26.9073, 
        26.9378,
        26.9684,
        26.999,
        27.0297,
        27.0605,
        27.0913,
        27.1221, 
        27.1531,
        27.184,
        27.2151,
        27.2462,
        27.2774,
        27.3087,
        27.34,
        27.3714, 
        27.4029,
        27.4345,
        27.4662,
        27.4979,
        27.5297,
        27.5616,
        27.5936, 
        27.6257,
        27.6579,
        27.6902,
        27.7226,
        27.755,
        27.7876,
        27.8203, 
        27.8531,
        27.886,
        27.919,
        27.9521,
        27.9853,
        28.0186,
        28.0521,
        28.0856, 
        28.1193,
        28.1531,
        28.1871,
        28.2211,
        28.2553,
        28.2896,
        28.3241, 
        28.3587,
        28.3934,
        28.4283,
        28.4633,
        28.4984,
        28.5337,
        28.5691, 
        28.6047,
        28.6404,
        28.6763,
        28.7123,
        28.7485,
        28.7849,
        28.8214, 
        28.858,
        28.8948,
        28.9318,
        28.969,
        29.0063,
        29.0438,
        29.0815,
        29.1193, 
        29.1573,
        29.1955,
        29.2339,
        29.2725,
        29.3112,
        29.3502,
        29.3893, 
        29.4286,
        29.4681,
        29.5078,
        29.5477,
        29.5878,
        29.6281,
        29.6686, 
        29.7093,
        29.7502,
        29.7913,
        29.8326,
        29.8741,
        29.9159,
        29.9578,
        30., 
        30.0494,
        30.0987,
        30.148,
        30.1973,
        30.2466,
        30.2959,
        30.3452, 
        30.3945,
        30.4438,
        30.4931,
        30.5425,
        30.5918,
        30.6412,
        30.6906, 
        30.7401,
        30.7896,
        30.8392,
        30.8888,
        30.9385,
        30.9882,
        31.038, 
        31.0879,
        31.1379,
        31.1879,
        31.2381,
        31.2883,
        31.3387,
        31.3891, 
        31.4397,
        31.4903,
        31.5411,
        31.592,
        31.6431,
        31.6943,
        31.7456, 
        31.7971,
        31.8487,
        31.9005,
        31.9524,
        32.0045,
        32.0568,
        32.1092, 
        32.1619,
        32.2147,
        32.2677,
        32.3209,
        32.3743,
        32.4279,
        32.4817, 
        32.5358,
        32.5901,
        32.6445,
        32.6993,
        32.7542,
        32.8094,
        32.8649, 
        32.9206,
        32.9765,
        33.0327,
        33.0892,
        33.146,
        33.203,
        33.2603,
        33.3179, 
        33.3758,
        33.434,
        33.4925,
        33.5513,
        33.6104,
        33.6698,
        33.7296, 
        33.7896,
        33.8501,
        33.9108,
        33.9719,
        34.0333,
        34.0951,
        34.1573, 
        34.2198,
        34.2827,
        34.3459,
        34.4095,
        34.4735,
        34.5379,
        34.6027, 
        34.6679,
        34.7335,
        34.7995,
        34.8659,
        34.9327,
        35.,
        35.0908,
        35.1808, 
        35.27,
        35.3584,
        35.4462,
        35.5332,
        35.6196,
        35.7054,
        35.7906,
        35.8752, 
        35.9593,
        36.0428,
        36.1259,
        36.2084,
        36.2906,
        36.3724,
        36.4537, 
        36.5348,
        36.6155,
        36.6959,
        36.7761,
        36.856,
        36.9358,
        37.0153, 
        37.0947,
        37.174,
        37.2532,
        37.3323,
        37.4114,
        37.4905,
        37.5696, 
        37.6487,
        37.728,
        37.8073,
        37.8868,
        37.9664,
        38.0462,
        38.1263, 
        38.2066,
        38.2871,
        38.368,
        38.4492,
        38.5308,
        38.6127,
        38.6951, 
        38.7779,
        38.8612,
        38.945,
        39.0293,
        39.1142,
        39.1997,
        39.2858, 
        39.3725,
        39.4599,
        39.548,
        39.6368,
        39.7264,
        39.8168,
        39.908,
        40., 
        40.1289,
        40.256,
        40.3812,
        40.5048,
        40.6268,
        40.7473,
        40.8665, 
        40.9844,
        41.1011,
        41.2168,
        41.3316,
        41.4455,
        41.5587,
        41.6713, 
        41.7833,
        41.895,
        42.0063,
        42.1175,
        42.2285,
        42.3396,
        42.4507, 
        42.5621,
        42.6739,
        42.786,
        42.8987,
        43.0121,
        43.1262,
        43.2411, 
        43.3571,
        43.4741,
        43.5922,
        43.7117,
        43.8325,
        43.9549,
        44.0788, 
        44.2044,
        44.3319,
        44.4612,
        44.5926,
        44.7262,
        44.8619,
        45.,
        45.1123, 
        45.2306,
        45.3548,
        45.4849,
        45.6209,
        45.7626,
        45.9102,
        46.0634, 
        46.2223,
        46.3869,
        46.557,
        46.7326,
        46.9138,
        47.1003,
        47.2923, 
        47.4896,
        47.6922,
        47.9001,
        48.1132,
        48.3315,
        48.5548,
        48.7833, 
        49.0167,
        49.2552,
        49.4986,
        49.7469,
        50.,
        50.2579,
        50.5206,
        50.788, 
        51.06,
        51.3367,
        51.6179,
        51.9037,
        52.1939,
        52.4886,
        52.7876,
        53.091, 
        53.3987,
        53.7107,
        54.0268,
        54.3471,
        54.6715,
        55.,
        55.3325,
        55.669, 
        56.0094,
        56.3537,
        56.7018,
        57.0537,
        57.4094,
        57.7687,
        58.1317, 
        58.4983,
        58.8685,
        59.2422,
        59.6194,
        60.
     };
    const float REFLECTANCE_LOOKUP_FRONT[652] = {
         15.,
        15.0366,
        15.0729,
        15.109,
        15.1448,
        15.1802,
        15.2155,
        15.2504, 
        15.285,
        15.3194,
        15.3535,
        15.3874,
        15.421,
        15.4543,
        15.4873,
        15.5201, 
        15.5526,
        15.5849,
        15.6169,
        15.6486,
        15.6801,
        15.7113,
        15.7422, 
        15.773,
        15.8034,
        15.8336,
        15.8636,
        15.8933,
        15.9228,
        15.952,
        15.981, 
        16.0097,
        16.0382,
        16.0665,
        16.0945,
        16.1223,
        16.1498,
        16.1771, 
        16.2042,
        16.2311,
        16.2577,
        16.2841,
        16.3103,
        16.3362,
        16.3619, 
        16.3874,
        16.4127,
        16.4378,
        16.4626,
        16.4873,
        16.5117,
        16.5359, 
        16.5599,
        16.5836,
        16.6072,
        16.6306,
        16.6537,
        16.6767,
        16.6994, 
        16.722,
        16.7443,
        16.7665,
        16.7884,
        16.8102,
        16.8318,
        16.8531, 
        16.8743,
        16.8953,
        16.9161,
        16.9367,
        16.9571,
        16.9774,
        16.9974, 
        17.0173,
        17.037,
        17.0565,
        17.0758,
        17.095,
        17.114,
        17.1328,
        17.1515, 
        17.1699,
        17.1882,
        17.2064,
        17.2243,
        17.2422,
        17.2598,
        17.2773, 
        17.2946,
        17.3118,
        17.3288,
        17.3456,
        17.3623,
        17.3789,
        17.3952, 
        17.4115,
        17.4276,
        17.4435,
        17.4593,
        17.475,
        17.4905,
        17.5059, 
        17.5211,
        17.5362,
        17.5511,
        17.5659,
        17.5806,
        17.5952,
        17.6096, 
        17.6239,
        17.638,
        17.6521,
        17.666,
        17.6798,
        17.6934,
        17.707,
        17.7204, 
        17.7337,
        17.7469,
        17.7599,
        17.7729,
        17.7857,
        17.7984,
        17.8111, 
        17.8236,
        17.836,
        17.8483,
        17.8605,
        17.8725,
        17.8845,
        17.8964, 
        17.9082,
        17.9199,
        17.9315,
        17.943,
        17.9544,
        17.9657,
        17.9769, 
        17.9881,
        17.9991,
        18.0101,
        18.021,
        18.0318,
        18.0425,
        18.0531, 
        18.0637,
        18.0741,
        18.0845,
        18.0949,
        18.1051,
        18.1153,
        18.1254, 
        18.1355,
        18.1454,
        18.1554,
        18.1652,
        18.175,
        18.1847,
        18.1944,
        18.204, 
        18.2135,
        18.223,
        18.2325,
        18.2418,
        18.2512,
        18.2605,
        18.2697, 
        18.2789,
        18.288,
        18.2971,
        18.3062,
        18.3152,
        18.3242,
        18.3331,
        18.342, 
        18.3509,
        18.3597,
        18.3685,
        18.3772,
        18.386,
        18.3947,
        18.4034,
        18.412, 
        18.4206,
        18.4293,
        18.4378,
        18.4464,
        18.4549,
        18.4635,
        18.472, 
        18.4805,
        18.489,
        18.4974,
        18.5059,
        18.5144,
        18.5228,
        18.5313, 
        18.5397,
        18.5481,
        18.5566,
        18.565,
        18.5734,
        18.5819,
        18.5903, 
        18.5988,
        18.6072,
        18.6157,
        18.6242,
        18.6326,
        18.6411,
        18.6497, 
        18.6582,
        18.6667,
        18.6753,
        18.6839,
        18.6925,
        18.7011,
        18.7098, 
        18.7185,
        18.7272,
        18.7359,
        18.7447,
        18.7535,
        18.7623,
        18.7712, 
        18.7801,
        18.789,
        18.798,
        18.807,
        18.816,
        18.8251,
        18.8343,
        18.8435, 
        18.8527,
        18.862,
        18.8713,
        18.8807,
        18.8902,
        18.8997,
        18.9092, 
        18.9188,
        18.9285,
        18.9382,
        18.948,
        18.9579,
        18.9678,
        18.9778, 
        18.9878,
        18.998,
        19.0081,
        19.0184,
        19.0287,
        19.0392,
        19.0496, 
        19.0602,
        19.0708,
        19.0816,
        19.0924,
        19.1032,
        19.1142,
        19.1253, 
        19.1364,
        19.1477,
        19.159,
        19.1704,
        19.1819,
        19.1935,
        19.2052,
        19.217, 
        19.2289,
        19.2409,
        19.253,
        19.2652,
        19.2775,
        19.2899,
        19.3024,
        19.315, 
        19.3278,
        19.3406,
        19.3536,
        19.3667,
        19.3798,
        19.3931,
        19.4066, 
        19.4201,
        19.4338,
        19.4476,
        19.4615,
        19.4755,
        19.4897,
        19.504, 
        19.5184,
        19.533,
        19.5477,
        19.5625,
        19.5775,
        19.5926,
        19.6078, 
        19.6232,
        19.6387,
        19.6544,
        19.6702,
        19.6862,
        19.7023,
        19.7185, 
        19.7349,
        19.7515,
        19.7682,
        19.7851,
        19.8021,
        19.8193,
        19.8366, 
        19.8541,
        19.8717,
        19.8896,
        19.9076,
        19.9257,
        19.944,
        19.9625, 
        19.9812,
        20.,
        20.0489,
        20.0973,
        20.1451,
        20.1924,
        20.2392,
        20.2855, 
        20.3313,
        20.3766,
        20.4214,
        20.4657,
        20.5095,
        20.5529,
        20.5958, 
        20.6383,
        20.6804,
        20.722,
        20.7632,
        20.8039,
        20.8443,
        20.8842, 
        20.9238,
        20.963,
        21.0017,
        21.0402,
        21.0782,
        21.1159,
        21.1533, 
        21.1903,
        21.2269,
        21.2633,
        21.2993,
        21.335,
        21.3704,
        21.4055, 
        21.4403,
        21.4749,
        21.5092,
        21.5432,
        21.5769,
        21.6104,
        21.6436, 
        21.6767,
        21.7094,
        21.742,
        21.7744,
        21.8065,
        21.8385,
        21.8702, 
        21.9018,
        21.9332,
        21.9644,
        21.9955,
        22.0265,
        22.0572,
        22.0879, 
        22.1184,
        22.1488,
        22.1791,
        22.2093,
        22.2393,
        22.2693,
        22.2992, 
        22.3291,
        22.3588,
        22.3885,
        22.4182,
        22.4478,
        22.4773,
        22.5069, 
        22.5364,
        22.5659,
        22.5953,
        22.6248,
        22.6543,
        22.6838,
        22.7134, 
        22.743,
        22.7726,
        22.8022,
        22.8319,
        22.8617,
        22.8915,
        22.9214, 
        22.9514,
        22.9815,
        23.0117,
        23.042,
        23.0724,
        23.1029,
        23.1336, 
        23.1644,
        23.1953,
        23.2264,
        23.2577,
        23.2891,
        23.3207,
        23.3525, 
        23.3844,
        23.4166,
        23.449,
        23.4816,
        23.5144,
        23.5474,
        23.5807, 
        23.6142,
        23.648,
        23.682,
        23.7163,
        23.7509,
        23.7857,
        23.8209,
        23.8563, 
        23.892,
        23.9281,
        23.9645,
        24.0012,
        24.0382,
        24.0756,
        24.1133, 
        24.1514,
        24.1898,
        24.2287,
        24.2679,
        24.3075,
        24.3475,
        24.3879, 
        24.4287,
        24.4699,
        24.5115,
        24.5536,
        24.5961,
        24.6391,
        24.6826, 
        24.7264,
        24.7708,
        24.8157,
        24.861,
        24.9068,
        24.9532,
        25.,
        25.0436, 
        25.088,
        25.133,
        25.1788,
        25.2252,
        25.2724,
        25.3203,
        25.369,
        25.4184, 
        25.4685,
        25.5193,
        25.5709,
        25.6233,
        25.6764,
        25.7302,
        25.7849, 
        25.8403,
        25.8964,
        25.9534,
        26.0111,
        26.0697,
        26.129,
        26.1891,
        26.25, 
        26.3117,
        26.3743,
        26.4376,
        26.5018,
        26.5668,
        26.6327,
        26.6993, 
        26.7668,
        26.8352,
        26.9044,
        26.9744,
        27.0453,
        27.1171,
        27.1898, 
        27.2633,
        27.3377,
        27.4129,
        27.4891,
        27.5661,
        27.6441,
        27.7229, 
        27.8027,
        27.8833,
        27.9649,
        28.0474,
        28.1308,
        28.2151,
        28.3004, 
        28.3866,
        28.4738,
        28.5619,
        28.6509,
        28.7409,
        28.8319,
        28.9238, 
        29.0167,
        29.1106,
        29.2054,
        29.3013,
        29.3981,
        29.4959,
        29.5947, 
        29.6945,
        29.7953,
        29.8972,
        30.,
        30.1544,
        30.3057,
        30.4543,
        30.6, 
        30.7431,
        30.8837,
        31.0219,
        31.1578,
        31.2915,
        31.4232,
        31.5529, 
        31.6808,
        31.807,
        31.9316,
        32.0548,
        32.1766,
        32.2972,
        32.4167, 
        32.5351,
        32.6527,
        32.7695,
        32.8857,
        33.0014,
        33.1166,
        33.2315, 
        33.3463,
        33.461,
        33.5758,
        33.6907,
        33.8059,
        33.9216,
        34.0377, 
        34.1545,
        34.2721,
        34.3905,
        34.51,
        34.6305,
        34.7523,
        34.8754,
        35., 
        35.1032,
        35.2106,
        35.3222,
        35.4381,
        35.5583,
        35.6828,
        35.8116, 
        35.9447,
        36.0822,
        36.224,
        36.3702,
        36.5207,
        36.6757,
        36.8351,
        36.999, 
        37.1673,
        37.34,
        37.5173,
        37.699,
        37.8853,
        38.0761,
        38.2715,
        38.4714, 
        38.6759,
        38.885,
        39.0987,
        39.317,
        39.54,
        39.7677,
        40.,
        40.3633, 
        40.7089,
        41.038,
        41.3523,
        41.6531,
        41.9418,
        42.2201,
        42.4892, 
        42.7507,
        43.006,
        43.2565,
        43.5038,
        43.7492,
        43.9943,
        44.2405, 
        44.4892,
        44.7419,
        45.,
        45.265,
        45.5384,
        45.8216,
        46.1161,
        46.4232, 
        46.7446,
        47.0816,
        47.4356,
        47.8082,
        48.2008,
        48.6148,
        49.0517, 
        49.5129,
        50.,
        50.6071,
        51.2269,
        51.8558,
        52.4897,
        53.125,
        53.7577, 
        54.384,
        55.,
        55.6019,
        56.1859,
        56.7481,
        57.2847,
        57.7918,
        58.2656, 
        58.7022,
        59.0977,
        59.4485,
        59.7505,
        60. 
    };
    
    
    // lookup table for 27-2113mm
    const float DISTANCE_LOOKUP[2087] = {
        300.,
        299.266,
        298.54,
        297.824,
        297.117,
        296.418,
        295.729,
        295.048, 
        294.375,
        293.711,
        293.055,
        292.407,
        291.768,
        291.136,
        290.512, 
        289.896,
        289.288,
        288.687,
        288.093,
        287.507,
        286.928,
        286.355, 
        285.79,
        285.232,
        284.68,
        284.135,
        283.597,
        283.065,
        282.539,
        282.019, 
        281.506,
        280.998,
        280.496,
        280.,
        279.509,
        279.024,
        278.545,
        278.07, 
        277.601,
        277.137,
        276.677,
        276.223,
        275.773,
        275.328,
        274.887, 
        274.451,
        274.019,
        273.591,
        273.167,
        272.747,
        272.331,
        271.918, 
        271.509,
        271.104,
        270.702,
        270.303,
        269.907,
        269.515,
        269.125, 
        268.738,
        268.354,
        267.972,
        267.593,
        267.216,
        266.841,
        266.469, 
        266.098,
        265.73,
        265.363,
        264.998,
        264.634,
        264.272,
        263.912, 
        263.552,
        263.194,
        262.836,
        262.48,
        262.124,
        261.769,
        261.415, 
        261.061,
        260.707,
        260.353,
        260.,
        259.585,
        259.17,
        258.756,
        258.341, 
        257.927,
        257.512,
        257.098,
        256.685,
        256.271,
        255.858,
        255.445, 
        255.033,
        254.621,
        254.209,
        253.798,
        253.387,
        252.977,
        252.568, 
        252.159,
        251.751,
        251.344,
        250.937,
        250.532,
        250.127,
        249.722, 
        249.319,
        248.917,
        248.515,
        248.115,
        247.716,
        247.317,
        246.92, 
        246.524,
        246.129,
        245.736,
        245.343,
        244.952,
        244.562,
        244.174, 
        243.787,
        243.401,
        243.017,
        242.634,
        242.253,
        241.873,
        241.495, 
        241.119,
        240.744,
        240.371,
        240.,
        239.667,
        239.336,
        239.008,
        238.682, 
        238.358,
        238.035,
        237.716,
        237.398,
        237.082,
        236.768,
        236.456, 
        236.146,
        235.838,
        235.532,
        235.228,
        234.926,
        234.625,
        234.327, 
        234.03,
        233.735,
        233.442,
        233.15,
        232.86,
        232.572,
        232.286,
        232.001, 
        231.718,
        231.436,
        231.156,
        230.877,
        230.6,
        230.324,
        230.05,
        229.778, 
        229.506,
        229.236,
        228.968,
        228.701,
        228.435,
        228.17,
        227.907, 
        227.644,
        227.384,
        227.124,
        226.865,
        226.608,
        226.351,
        226.096, 
        225.842,
        225.589,
        225.337,
        225.086,
        224.836,
        224.587,
        224.338, 
        224.091,
        223.845,
        223.599,
        223.354,
        223.11,
        222.867,
        222.624, 
        222.383,
        222.142,
        221.901,
        221.662,
        221.423,
        221.184,
        220.946, 
        220.709,
        220.472,
        220.236,
        220.,
        219.745,
        219.491,
        219.237,
        218.984, 
        218.73,
        218.478,
        218.225,
        217.973,
        217.722,
        217.47,
        217.219,
        216.969, 
        216.718,
        216.468,
        216.219,
        215.97,
        215.721,
        215.472,
        215.224, 
        214.976,
        214.728,
        214.481,
        214.234,
        213.987,
        213.74,
        213.494, 
        213.248,
        213.002,
        212.757,
        212.512,
        212.267,
        212.022,
        211.778, 
        211.534,
        211.29,
        211.046,
        210.803,
        210.559,
        210.316,
        210.073, 
        209.831,
        209.588,
        209.346,
        209.104,
        208.862,
        208.621,
        208.379, 
        208.138,
        207.897,
        207.656,
        207.415,
        207.174,
        206.934,
        206.693, 
        206.453,
        206.213,
        205.973,
        205.733,
        205.493,
        205.253,
        205.014, 
        204.775,
        204.535,
        204.296,
        204.057,
        203.818,
        203.579,
        203.34, 
        203.101,
        202.862,
        202.623,
        202.385,
        202.146,
        201.908,
        201.669, 
        201.431,
        201.192,
        200.954,
        200.715,
        200.477,
        200.238,
        200.,
        199.75, 
        199.499,
        199.249,
        198.999,
        198.749,
        198.499,
        198.248,
        197.998, 
        197.748,
        197.498,
        197.248,
        196.998,
        196.749,
        196.499,
        196.249,
        196., 
        195.75,
        195.501,
        195.251,
        195.002,
        194.753,
        194.504,
        194.255, 
        194.007,
        193.758,
        193.51,
        193.261,
        193.013,
        192.765,
        192.518,
        192.27, 
        192.023,
        191.775,
        191.528,
        191.281,
        191.035,
        190.788,
        190.542, 
        190.296,
        190.05,
        189.804,
        189.559,
        189.314,
        189.069,
        188.824,
        188.58, 
        188.336,
        188.092,
        187.848,
        187.605,
        187.362,
        187.119,
        186.877, 
        186.635,
        186.393,
        186.151,
        185.91,
        185.669,
        185.429,
        185.189, 
        184.949,
        184.709,
        184.47,
        184.231,
        183.993,
        183.755,
        183.517,
        183.28, 
        183.043,
        182.806,
        182.57,
        182.334,
        182.099,
        181.864,
        181.629, 
        181.395,
        181.162,
        180.928,
        180.696,
        180.463,
        180.231,
        180.,
        179.786, 
        179.572,
        179.358,
        179.145,
        178.933,
        178.721,
        178.51,
        178.299, 
        178.089,
        177.879,
        177.67,
        177.461,
        177.252,
        177.044,
        176.837,
        176.63, 
        176.423,
        176.217,
        176.011,
        175.806,
        175.601,
        175.396,
        175.192, 
        174.988,
        174.785,
        174.582,
        174.38,
        174.177,
        173.976,
        173.774, 
        173.573,
        173.372,
        173.172,
        172.972,
        172.772,
        172.573,
        172.373, 
        172.175,
        171.976,
        171.778,
        171.58,
        171.382,
        171.185,
        170.988, 
        170.791,
        170.594,
        170.398,
        170.202,
        170.006,
        169.811,
        169.615, 
        169.42,
        169.225,
        169.031,
        168.836,
        168.642,
        168.448,
        168.254,
        168.06, 
        167.866,
        167.673,
        167.48,
        167.286,
        167.094,
        166.901,
        166.708, 
        166.515,
        166.323,
        166.131,
        165.938,
        165.746,
        165.554,
        165.362, 
        165.171,
        164.979,
        164.787,
        164.596,
        164.404,
        164.212,
        164.021, 
        163.83,
        163.638,
        163.447,
        163.255,
        163.064,
        162.873,
        162.682,
        162.49, 
        162.299,
        162.108,
        161.916,
        161.725,
        161.533,
        161.342,
        161.15, 
        160.959,
        160.767,
        160.576,
        160.384,
        160.192,
        160.,
        159.792,
        159.583, 
        159.374,
        159.166,
        158.957,
        158.748,
        158.539,
        158.33,
        158.122, 
        157.913,
        157.704,
        157.495,
        157.285,
        157.076,
        156.867,
        156.658, 
        156.449,
        156.24,
        156.03,
        155.821,
        155.612,
        155.403,
        155.194,
        154.984, 
        154.775,
        154.566,
        154.357,
        154.148,
        153.939,
        153.73,
        153.521, 
        153.312,
        153.103,
        152.894,
        152.685,
        152.476,
        152.268,
        152.059, 
        151.851,
        151.642,
        151.434,
        151.225,
        151.017,
        150.809,
        150.601, 
        150.393,
        150.185,
        149.977,
        149.769,
        149.562,
        149.354,
        149.147, 
        148.94,
        148.733,
        148.526,
        148.319,
        148.112,
        147.906,
        147.699, 
        147.493,
        147.287,
        147.081,
        146.875,
        146.669,
        146.464,
        146.259, 
        146.054,
        145.849,
        145.644,
        145.439,
        145.235,
        145.031,
        144.827, 
        144.623,
        144.419,
        144.216,
        144.013,
        143.81,
        143.607,
        143.405, 
        143.202,
        143.,
        142.798,
        142.597,
        142.396,
        142.194,
        141.994,
        141.793, 
        141.593,
        141.393,
        141.193,
        140.993,
        140.794,
        140.595,
        140.397, 
        140.198,
        140.,
        139.677,
        139.359,
        139.044,
        138.733,
        138.426,
        138.122, 
        137.823,
        137.527,
        137.235,
        136.947,
        136.662,
        136.381,
        136.104, 
        135.83,
        135.559,
        135.292,
        135.029,
        134.769,
        134.512,
        134.258, 
        134.008,
        133.761,
        133.518,
        133.277,
        133.04,
        132.805,
        132.574, 
        132.346,
        132.121,
        131.899,
        131.68,
        131.463,
        131.25,
        131.039,
        130.831, 
        130.626,
        130.424,
        130.224,
        130.027,
        129.833,
        129.641,
        129.452, 
        129.265,
        129.08,
        128.899,
        128.719,
        128.542,
        128.367,
        128.195, 
        128.024,
        127.856,
        127.691,
        127.527,
        127.365,
        127.206,
        127.048, 
        126.893,
        126.74,
        126.588,
        126.438,
        126.291,
        126.145,
        126.001, 
        125.858,
        125.718,
        125.579,
        125.442,
        125.306,
        125.172,
        125.039, 
        124.908,
        124.779,
        124.651,
        124.524,
        124.399,
        124.275,
        124.152, 
        124.03,
        123.91,
        123.791,
        123.673,
        123.557,
        123.441,
        123.326,
        123.213, 
        123.1,
        122.988,
        122.878,
        122.768,
        122.659,
        122.55,
        122.443,
        122.336, 
        122.23,
        122.125,
        122.02,
        121.916,
        121.812,
        121.709,
        121.606,
        121.504, 
        121.402,
        121.301,
        121.2,
        121.099,
        120.998,
        120.898,
        120.798,
        120.698, 
        120.598,
        120.499,
        120.399,
        120.299,
        120.2,
        120.1,
        120.,
        120.061, 
        120.112,
        120.154,
        120.188,
        120.212,
        120.228,
        120.235,
        120.234, 
        120.224,
        120.207,
        120.182,
        120.149,
        120.108,
        120.061,
        120.006, 
        119.943,
        119.874,
        119.799,
        119.716,
        119.627,
        119.532,
        119.431, 
        119.324,
        119.211,
        119.093,
        118.969,
        118.84,
        118.705,
        118.566, 
        118.422,
        118.273,
        118.119,
        117.962,
        117.8,
        117.634,
        117.464,
        117.291, 
        117.114,
        116.934,
        116.75,
        116.564,
        116.374,
        116.182,
        115.987,
        115.79, 
        115.591,
        115.389,
        115.186,
        114.981,
        114.774,
        114.566,
        114.356, 
        114.145,
        113.934,
        113.721,
        113.508,
        113.295,
        113.081,
        112.867, 
        112.653,
        112.439,
        112.225,
        112.012,
        111.8,
        111.588,
        111.378,
        111.168, 
        110.96,
        110.753,
        110.548,
        110.345,
        110.143,
        109.944,
        109.746, 
        109.552,
        109.36,
        109.17,
        108.984,
        108.8,
        108.641,
        108.486,
        108.336, 
        108.19,
        108.048,
        107.91,
        107.776,
        107.647,
        107.521,
        107.398,
        107.28, 
        107.164,
        107.052,
        106.944,
        106.838,
        106.736,
        106.637,
        106.54, 
        106.446,
        106.355,
        106.267,
        106.181,
        106.097,
        106.016,
        105.936, 
        105.859,
        105.784,
        105.71,
        105.639,
        105.569,
        105.5,
        105.424,
        105.349, 
        105.275,
        105.202,
        105.13,
        105.059,
        104.988,
        104.919,
        104.85,
        104.782, 
        104.714,
        104.647,
        104.58,
        104.514,
        104.448,
        104.382,
        104.316, 
        104.251,
        104.185,
        104.12,
        104.054,
        103.988,
        103.922,
        103.856, 
        103.789,
        103.722,
        103.654,
        103.586,
        103.517,
        103.448,
        103.377, 
        103.306,
        103.234,
        103.161,
        103.087,
        103.012,
        102.935,
        102.858, 
        102.779,
        102.699,
        102.617,
        102.534,
        102.449,
        102.363,
        102.275, 
        102.185,
        102.094,
        102.,
        101.86,
        101.72,
        101.58,
        101.441,
        101.301, 
        101.162,
        101.023,
        100.884,
        100.745,
        100.606,
        100.468,
        100.33, 
        100.192,
        100.055,
        99.9183,
        99.7818,
        99.6457,
        99.5101,
        99.375, 
        99.2404,
        99.1063,
        98.9727,
        98.8398,
        98.7074,
        98.5757,
        98.4446, 
        98.3142,
        98.1845,
        98.0556,
        97.9274,
        97.8,
        97.6734,
        97.5476,
        97.4227, 
        97.2987,
        97.1756,
        97.0534,
        96.9322,
        96.812,
        96.6927,
        96.5745, 
        96.4574,
        96.3414,
        96.2264,
        96.1126,
        96.,
        95.8891,
        95.7794,
        95.6709, 
        95.5637,
        95.4577,
        95.353,
        95.2496,
        95.1474,
        95.0466,
        94.9471, 
        94.8489,
        94.7521,
        94.6566,
        94.5625,
        94.4697,
        94.3784,
        94.2885,
        94.2, 
        94.1217,
        94.0451,
        93.9703,
        93.8971,
        93.8254,
        93.7552,
        93.6864, 
        93.619,
        93.5528,
        93.4877,
        93.4238,
        93.3608,
        93.2989,
        93.2377, 
        93.1774,
        93.1178,
        93.0589,
        93.0005,
        92.9426,
        92.8851,
        92.8279, 
        92.771,
        92.7143,
        92.6577,
        92.6012,
        92.5446,
        92.4879,
        92.431,
        92.3738, 
        92.3163,
        92.2584,
        92.2,
        92.1238,
        92.0471,
        91.9698,
        91.892,
        91.8136, 
        91.7348,
        91.6555,
        91.5757,
        91.4955,
        91.4149,
        91.3339,
        91.2526, 
        91.1709,
        91.0889,
        91.0067,
        90.9241,
        90.8413,
        90.7582,
        90.675, 
        90.5916,
        90.508,
        90.4242,
        90.3404,
        90.2564,
        90.1724,
        90.0883, 
        90.0042,
        89.92,
        89.8359,
        89.7518,
        89.6678,
        89.5839,
        89.5,
        89.4363, 
        89.3727,
        89.3089,
        89.2449,
        89.1807,
        89.116,
        89.0509,
        88.9853, 
        88.9189,
        88.8519,
        88.784,
        88.7151,
        88.6452,
        88.5743,
        88.5021, 
        88.4285,
        88.3537,
        88.2773,
        88.1993,
        88.1197,
        88.0383,
        87.955, 
        87.8698,
        87.7826,
        87.6932,
        87.6016,
        87.5076,
        87.4113,
        87.3125, 
        87.211,
        87.1069,
        87.,
        86.8672,
        86.7334,
        86.5988,
        86.4637,
        86.3282, 
        86.1926,
        86.0571,
        85.9218,
        85.7871,
        85.653,
        85.5198,
        85.3876, 
        85.2568,
        85.1276,
        85.,
        84.9013,
        84.8062,
        84.7144,
        84.6259,
        84.5405, 
        84.458,
        84.3784,
        84.3014,
        84.227,
        84.155,
        84.0852,
        84.0176,
        83.9519, 
        83.888,
        83.8259,
        83.7653,
        83.7061,
        83.6481,
        83.5913,
        83.5355, 
        83.4805,
        83.4262,
        83.3725,
        83.3191,
        83.2661,
        83.2132,
        83.1602, 
        83.1072,
        83.0538,
        83.,
        82.9239,
        82.8475,
        82.771,
        82.6942,
        82.6173, 
        82.5403,
        82.4632,
        82.386,
        82.3089,
        82.2317,
        82.1546,
        82.0776, 
        82.0008,
        81.9241,
        81.8475,
        81.7712,
        81.6952,
        81.6194,
        81.544, 
        81.4689,
        81.3942,
        81.3199,
        81.2461,
        81.1728,
        81.1,
        81.0309,
        80.9623, 
        80.8942,
        80.8267,
        80.7597,
        80.6932,
        80.6272,
        80.5618,
        80.4969, 
        80.4325,
        80.3686,
        80.3052,
        80.2424,
        80.18,
        80.1182,
        80.0569,
        79.9962, 
        79.9359,
        79.8761,
        79.8169,
        79.7582,
        79.7,
        79.6471,
        79.595,
        79.5435, 
        79.4927,
        79.4425,
        79.3929,
        79.3439,
        79.2955,
        79.2476,
        79.2002, 
        79.1532,
        79.1068,
        79.0607,
        79.015,
        78.9697,
        78.9247,
        78.88,
        78.8356, 
        78.7915,
        78.7476,
        78.7039,
        78.6604,
        78.617,
        78.5737,
        78.5305, 
        78.4874,
        78.4443,
        78.4012,
        78.3582,
        78.315,
        78.2718,
        78.2285, 
        78.1851,
        78.1415,
        78.0978,
        78.0538,
        78.0096,
        77.9651,
        77.9203, 
        77.8753,
        77.8299,
        77.7841,
        77.7379,
        77.6913,
        77.6442,
        77.5966, 
        77.5486,
        77.5,
        77.4401,
        77.3798,
        77.3192,
        77.2584,
        77.1973,
        77.1359, 
        77.0743,
        77.0124,
        76.9504,
        76.8881,
        76.8257,
        76.7631,
        76.7003, 
        76.6374,
        76.5744,
        76.5113,
        76.4481,
        76.3849,
        76.3215,
        76.2582, 
        76.1948,
        76.1313,
        76.0679,
        76.0046,
        75.9412,
        75.8779,
        75.8147, 
        75.7515,
        75.6884,
        75.6255,
        75.5627,
        75.5,
        75.4398,
        75.3797,
        75.3196, 
        75.2596,
        75.1996,
        75.1396,
        75.0797,
        75.0198,
        74.9599,
        74.9,
        74.8401, 
        74.7802,
        74.7203,
        74.6604,
        74.6004,
        74.5404,
        74.4804,
        74.4203, 
        74.3602,
        74.3,
        74.2397,
        74.1793,
        74.1188,
        74.0582,
        73.9975,
        73.9367, 
        73.8758,
        73.8148,
        73.7537,
        73.6924,
        73.6311,
        73.5695,
        73.5079, 
        73.446,
        73.384,
        73.3219,
        73.2596,
        73.1971,
        73.1344,
        73.0715,
        73.0085, 
        72.9452,
        72.8817,
        72.818,
        72.7541,
        72.69,
        72.6256,
        72.561,
        72.4961, 
        72.431,
        72.3656,
        72.3,
        72.2268,
        72.1534,
        72.0798,
        72.0061,
        71.9322, 
        71.8583,
        71.7844,
        71.7105,
        71.6366,
        71.5628,
        71.4891,
        71.4156, 
        71.3423,
        71.2692,
        71.1964,
        71.124,
        71.0518,
        70.9801,
        70.9088, 
        70.8379,
        70.7675,
        70.6977,
        70.6285,
        70.5599,
        70.4919,
        70.4246, 
        70.3581,
        70.2923,
        70.2274,
        70.1632,
        70.1,
        70.0551,
        70.0115,
        69.9691, 
        69.9279,
        69.8878,
        69.8489,
        69.811,
        69.7741,
        69.7383,
        69.7034, 
        69.6694,
        69.6364,
        69.6042,
        69.5729,
        69.5423,
        69.5125,
        69.4835, 
        69.4551,
        69.4274,
        69.4003,
        69.3738,
        69.3478,
        69.3224,
        69.2974, 
        69.2729,
        69.2488,
        69.2251,
        69.2017,
        69.1787,
        69.1559,
        69.1333, 
        69.111,
        69.0888,
        69.0668,
        69.0448,
        69.0229,
        69.0011,
        68.9792, 
        68.9573,
        68.9353,
        68.9133,
        68.891,
        68.8686,
        68.846,
        68.8232,
        68.8, 
        68.764,
        68.7277,
        68.6911,
        68.6542,
        68.617,
        68.5796,
        68.5418,
        68.5037, 
        68.4653,
        68.4266,
        68.3877,
        68.3484,
        68.3089,
        68.269,
        68.2289, 
        68.1885,
        68.1478,
        68.1069,
        68.0656,
        68.0241,
        67.9823,
        67.9402, 
        67.8979,
        67.8553,
        67.8124,
        67.7692,
        67.7258,
        67.6821,
        67.6381, 
        67.5939,
        67.5494,
        67.5047,
        67.4597,
        67.4144,
        67.3689,
        67.3231, 
        67.2771,
        67.2308,
        67.1843,
        67.1375,
        67.0905,
        67.0433,
        66.9957, 
        66.948,
        66.9,
        66.8483,
        66.7963,
        66.7441,
        66.6916,
        66.639,
        66.5862, 
        66.5332,
        66.4801,
        66.4268,
        66.3733,
        66.3197,
        66.266,
        66.2122, 
        66.1583,
        66.1043,
        66.0503,
        65.9961,
        65.942,
        65.8877,
        65.8335, 
        65.7792,
        65.725,
        65.6707,
        65.6164,
        65.5622,
        65.5081,
        65.4539, 
        65.3999,
        65.3459,
        65.292,
        65.2382,
        65.1845,
        65.1309,
        65.0775, 
        65.0242,
        64.971,
        64.9181,
        64.8653,
        64.8127,
        64.7603,
        64.7081, 
        64.6561,
        64.6044,
        64.5529,
        64.5016,
        64.4507,
        64.4,
        64.3573,
        64.3148, 
        64.2727,
        64.2308,
        64.1892,
        64.1479,
        64.1068,
        64.066,
        64.0254,
        63.985, 
        63.9449,
        63.905,
        63.8653,
        63.8257,
        63.7864,
        63.7472,
        63.7083, 
        63.6694,
        63.6308,
        63.5922,
        63.5538,
        63.5156,
        63.4774,
        63.4394, 
        63.4015,
        63.3636,
        63.3259,
        63.2882,
        63.2506,
        63.2131,
        63.1756, 
        63.1381,
        63.1007,
        63.0633,
        63.026,
        62.9886,
        62.9513,
        62.9139, 
        62.8765,
        62.8391,
        62.8017,
        62.7642,
        62.7267,
        62.6891,
        62.6514, 
        62.6137,
        62.5759,
        62.538,
        62.5,
        62.4584,
        62.4167,
        62.375,
        62.3331, 
        62.2912,
        62.2492,
        62.207,
        62.1648,
        62.1226,
        62.0802,
        62.0378, 
        61.9952,
        61.9526,
        61.91,
        61.8672,
        61.8244,
        61.7815,
        61.7385,
        61.6955, 
        61.6524,
        61.6092,
        61.5659,
        61.5226,
        61.4792,
        61.4358,
        61.3923, 
        61.3487,
        61.3051,
        61.2614,
        61.2177,
        61.1739,
        61.13,
        61.0861,
        61.0422, 
        60.9982,
        60.9541,
        60.91,
        60.8659,
        60.8217,
        60.7774,
        60.7331,
        60.6888, 
        60.6444,
        60.6,
        60.5539,
        60.5077,
        60.4615,
        60.4152,
        60.369,
        60.3227, 
        60.2764,
        60.2301,
        60.1838,
        60.1375,
        60.0912,
        60.0449,
        59.9987, 
        59.9525,
        59.9063,
        59.8602,
        59.8141,
        59.7681,
        59.7221,
        59.6762, 
        59.6303,
        59.5846,
        59.5389,
        59.4933,
        59.4478,
        59.4025,
        59.3572, 
        59.312,
        59.267,
        59.222,
        59.1772,
        59.1326,
        59.0881,
        59.0437,
        58.9995, 
        58.9554,
        58.9115,
        58.8678,
        58.8243,
        58.7809,
        58.7378,
        58.6948, 
        58.652,
        58.6095,
        58.5671,
        58.525,
        58.4831,
        58.4414,
        58.4,
        58.3744, 
        58.3492,
        58.3244,
        58.3001,
        58.2761,
        58.2525,
        58.2292,
        58.2063, 
        58.1837,
        58.1613,
        58.1393,
        58.1174,
        58.0959,
        58.0745,
        58.0533, 
        58.0323,
        58.0114,
        57.9907,
        57.97,
        57.9495,
        57.9291,
        57.9087,
        57.8883, 
        57.868,
        57.8476,
        57.8272,
        57.8068,
        57.7864,
        57.7658,
        57.7452, 
        57.7244,
        57.7035,
        57.6824,
        57.6612,
        57.6398,
        57.6181,
        57.5962, 
        57.5741,
        57.5517,
        57.529,
        57.506,
        57.4826,
        57.4589,
        57.4349,
        57.4104, 
        57.3856,
        57.3603,
        57.3345,
        57.3083,
        57.2816,
        57.2544,
        57.2267, 
        57.1985,
        57.1696,
        57.1402,
        57.1102,
        57.0796,
        57.0483,
        57.0164, 
        56.9838,
        56.9505,
        56.9164,
        56.8817,
        56.8462,
        56.8099,
        56.7728, 
        56.7349,
        56.6961,
        56.6565,
        56.6161,
        56.5747,
        56.5325,
        56.4893, 
        56.4451,
        56.4,
        56.3429,
        56.2853,
        56.2271,
        56.1685,
        56.1093,
        56.0497, 
        55.9896,
        55.929,
        55.868,
        55.8065,
        55.7446,
        55.6823,
        55.6195,
        55.5564, 
        55.4929,
        55.4289,
        55.3646,
        55.3,
        55.235,
        55.1697,
        55.104,
        55.038, 
        54.9717,
        54.9051,
        54.8383,
        54.7711,
        54.7037,
        54.636,
        54.5681,
        54.5, 
        54.4292,
        54.3582,
        54.287,
        54.2157,
        54.1443,
        54.0728,
        54.0012, 
        53.9296,
        53.858,
        53.7864,
        53.7149,
        53.6434,
        53.572,
        53.5008,
        53.4297, 
        53.3588,
        53.2881,
        53.2176,
        53.1474,
        53.0775,
        53.0079,
        52.9386, 
        52.8697,
        52.8012,
        52.7331,
        52.6655,
        52.5983,
        52.5317,
        52.4656,
        52.4, 
        52.3491,
        52.2991,
        52.2502,
        52.2023,
        52.1553,
        52.1093,
        52.0642,
        52.02, 
        51.9767,
        51.9343,
        51.8927,
        51.852,
        51.8121,
        51.773,
        51.7346,
        51.697, 
        51.6602,
        51.624,
        51.5886,
        51.5538,
        51.5197,
        51.4862,
        51.4534, 
        51.4212,
        51.3895,
        51.3584,
        51.3279,
        51.2979,
        51.2683,
        51.2393, 
        51.2108,
        51.1826,
        51.155,
        51.1277,
        51.1008,
        51.0743,
        51.0482, 
        51.0223,
        50.9968,
        50.9716,
        50.9467,
        50.922,
        50.8976,
        50.8734, 
        50.8494,
        50.8255,
        50.8018,
        50.7783,
        50.7549,
        50.7316,
        50.7084, 
        50.6852,
        50.6621,
        50.639,
        50.6159,
        50.5928,
        50.5697,
        50.5466, 
        50.5233,
        50.5,
        50.4766,
        50.453,
        50.4293,
        50.4054,
        50.3814,
        50.3571, 
        50.3326,
        50.3079,
        50.2829,
        50.2577,
        50.2321,
        50.2062,
        50.18,
        50.1535, 
        50.1265,
        50.0992,
        50.0714,
        50.0432,
        50.0146,
        49.9854,
        49.9558, 
        49.9257,
        49.8951,
        49.8639,
        49.8321,
        49.7998,
        49.7668,
        49.7332, 
        49.699,
        49.6641,
        49.6286,
        49.5923,
        49.5553,
        49.5175,
        49.4791, 
        49.4398,
        49.3997,
        49.3588,
        49.3171,
        49.2745,
        49.2311,
        49.1867, 
        49.1415,
        49.0953,
        49.0481,
        49.,
        48.9715,
        48.9432,
        48.9151,
        48.8871, 
        48.8592,
        48.8315,
        48.804,
        48.7765,
        48.7493,
        48.7222,
        48.6952, 
        48.6684,
        48.6417,
        48.6151,
        48.5887,
        48.5624,
        48.5363,
        48.5103, 
        48.4844,
        48.4587,
        48.4331,
        48.4076,
        48.3822,
        48.357,
        48.3319, 
        48.3069,
        48.2821,
        48.2573,
        48.2327,
        48.2082,
        48.1838,
        48.1596, 
        48.1354,
        48.1114,
        48.0875,
        48.0637,
        48.0399,
        48.0163,
        47.9929, 
        47.9695,
        47.9462,
        47.923,
        47.8999,
        47.877,
        47.8541,
        47.8313,
        47.8086, 
        47.786,
        47.7635,
        47.7411,
        47.7188,
        47.6966,
        47.6744,
        47.6524, 
        47.6304,
        47.6085,
        47.5867,
        47.565,
        47.5434,
        47.5218,
        47.5004, 
        47.4789,
        47.4576,
        47.4364,
        47.4152,
        47.3941,
        47.373,
        47.3521, 
        47.3312,
        47.3103,
        47.2895,
        47.2688,
        47.2482,
        47.2276,
        47.207, 
        47.1866,
        47.1662,
        47.1458,
        47.1255,
        47.1052,
        47.085,
        47.0649, 
        47.0448,
        47.0247,
        47.0047,
        46.9847,
        46.9648,
        46.9449,
        46.9251, 
        46.9053,
        46.8855,
        46.8658,
        46.8461,
        46.8265,
        46.8068,
        46.7872, 
        46.7677,
        46.7481,
        46.7286,
        46.7092,
        46.6897,
        46.6703,
        46.6509, 
        46.6315,
        46.6121,
        46.5928,
        46.5734,
        46.5541,
        46.5348,
        46.5155, 
        46.4963,
        46.477,
        46.4577,
        46.4385,
        46.4192,
        46.4,
        46.5326,
        46.6606, 
        46.7841,
        46.9031,
        47.0177,
        47.1279,
        47.2338,
        47.3353,
        47.4326, 
        47.5257,
        47.6147,
        47.6995,
        47.7803,
        47.8571,
        47.9299,
        47.9987, 
        48.0637,
        48.1248,
        48.1822,
        48.2358,
        48.2858,
        48.332,
        48.3747, 
        48.4138,
        48.4494,
        48.4816,
        48.5103,
        48.5357,
        48.5577,
        48.5764, 
        48.5919,
        48.6043,
        48.6134,
        48.6195,
        48.6226,
        48.6226,
        48.6197, 
        48.6138,
        48.6052,
        48.5936,
        48.5793,
        48.5623,
        48.5426,
        48.5203, 
        48.4954,
        48.4679,
        48.438,
        48.4056,
        48.3707,
        48.3336,
        48.2941, 
        48.2524,
        48.2084,
        48.1623,
        48.114,
        48.0636,
        48.0113,
        47.9569, 
        47.9006,
        47.8424,
        47.7823,
        47.7205,
        47.6568,
        47.5915,
        47.5245, 
        47.4559,
        47.3857,
        47.314,
        47.2408,
        47.1662,
        47.0901,
        47.0128, 
        46.9341,
        46.8542,
        46.7731,
        46.6908,
        46.6074,
        46.523,
        46.4375,
        46.351, 
        46.2637,
        46.1754,
        46.0863,
        45.9964,
        45.9058,
        45.8145,
        45.7225, 
        45.6299,
        45.5368,
        45.4431,
        45.349,
        45.2545,
        45.1596,
        45.0643, 
        44.9688,
        44.873,
        44.7771,
        44.681,
        44.5848,
        44.4886,
        44.3923,
        44.2961, 
        44.2,
        44.104,
        44.0082,
        43.9126,
        43.8173,
        43.7223,
        43.6277,
        43.5335, 
        43.4397,
        43.3464,
        43.2537,
        43.1616,
        43.0701,
        42.9793,
        42.8893,
        42.8, 
        42.7115,
        42.624,
        42.5373,
        42.4516,
        42.3669,
        42.2832,
        42.2007, 
        42.1193,
        42.0391,
        41.9602,
        41.8825,
        41.8061,
        41.7312,
        41.6576, 
        41.5856,
        41.515,
        41.446,
        41.3787,
        41.3129,
        41.2489,
        41.1866,
        41.1262, 
        41.0675,
        41.0108,
        40.9559,
        40.9031,
        40.8523,
        40.8035,
        40.7569, 
        40.7124,
        40.6701,
        40.6301,
        40.5924,
        40.557,
        40.5241,
        40.4935, 
        40.4655,
        40.44,
        40.417,
        40.3967,
        40.3791,
        40.3642,
        40.352,
        40.3426, 
        40.3361,
        40.3325,
        40.3319,
        40.3342,
        40.3396,
        40.348,
        40.3596, 
        40.3744,
        40.3924,
        40.4136,
        40.4382,
        40.4661,
        40.4975,
        40.5323, 
        40.5706,
        40.6124,
        40.6578,
        40.7069,
        40.7597,
        40.8161,
        40.8764, 
        40.9405,
        41.0084,
        41.0803,
        41.1561,
        41.236,
        41.3199,
        41.4079,
        41.5
    };
}